time (s)	coil I (A)	last det (V)	int current (uC)
6545.612764	1.084050	0.576388	471.561890
6545.613706	1.556345	0.576388	1937.639038
6545.614689	1.545619	0.576388	3456.982422
6545.615617	1.504534	0.576388	4853.189453
6545.616486	1.464877	0.576388	6126.166992
6545.617431	0.948929	0.576388	7022.905273
6545.618367	0.106589	0.576388	7122.672852
6545.619286	0.089872	0.576388	7205.265137
6545.620157	0.089960	0.576388	7283.620117
6545.621122	0.089971	0.576388	7370.441895
6545.622046	0.089919	0.576388	7453.527344
6545.622910	0.090026	0.576388	7531.309570
6545.623886	0.090121	0.576388	7619.267578
6545.624796	0.089908	0.576388	7701.084473
6545.625721	0.090007	0.576388	7784.341309
6545.626584	0.090073	0.576388	7862.074707
6546.649029	1.069475	0.590394	464.152161
6546.649895	1.554185	0.590394	1810.075928
6546.650880	1.548413	0.590394	3335.262695
6546.651802	1.508075	0.590394	4725.708008
6546.652682	1.468370	0.590394	6017.874023
6546.653610	1.085676	0.590394	7025.381836
6546.654575	0.124277	0.590394	7145.309570
6546.655499	0.089971	0.590394	7228.442383
6546.656374	0.090007	0.590394	7307.198730
6546.657304	0.090044	0.590394	7390.939453
6546.658247	0.090026	0.590394	7475.833496
6546.659172	0.089934	0.590394	7559.022461
6546.660035	0.089901	0.590394	7636.606934
6546.660994	0.089905	0.590394	7722.825684
6546.661935	0.090139	0.590394	7807.646484
6546.662831	0.090007	0.590394	7888.292969
6547.642299	1.046111	0.611177	440.412689
6547.643243	1.554899	0.611177	1908.237061
6547.644178	1.547260	0.611177	3354.924805
6547.645101	1.507170	0.611177	4746.042969
6547.645984	1.466755	0.611177	6041.187988
6547.646973	0.988601	0.611177	7018.914551
6547.647883	0.109969	0.611177	7118.986816
6547.648807	0.089872	0.611177	7202.028320
6547.649671	0.089949	0.611177	7279.744141
6547.650642	0.089993	0.611177	7367.126953
6547.651587	0.089945	0.611177	7452.125000
6547.652472	0.089934	0.611177	7531.716797
6547.653370	0.089857	0.611177	7612.408691
6547.654288	0.090143	0.611177	7695.159668
6547.655212	0.089978	0.611177	7778.299316
6547.656078	0.090139	0.611177	7856.359863
6548.679095	1.046323	0.613549	440.502045
6548.680041	1.558733	0.613549	1915.063354
6548.680974	1.547205	0.613549	3358.605225
6548.681897	1.507130	0.613549	4749.686523
6548.682765	1.466876	0.613549	6022.935059
6548.683758	0.999108	0.613549	7015.048828
6548.684677	0.114587	0.613549	7120.354492
6548.685556	0.089916	0.613549	7199.390625
6548.686472	0.089890	0.613549	7281.729980
6548.687409	0.089894	0.613549	7365.960449
6548.688344	0.089919	0.613549	7450.035156
6548.689217	0.090059	0.613549	7528.656250
6548.690158	0.089810	0.613549	7613.166992
6548.691118	0.089949	0.613549	7699.517578
6548.692048	0.089930	0.613549	7783.152832
6548.692916	0.089711	0.613549	7861.021484
6549.672481	1.105093	0.646207	580.173706
6549.673446	1.562102	0.646207	2087.602051
6549.674379	1.542956	0.646207	3527.180420
6549.675242	1.503926	0.646207	4825.068359
6549.676265	1.458574	0.646207	6317.189453
6549.677166	0.820800	0.646207	7056.729980
6549.678039	0.101049	0.646207	7144.945312
6549.678969	0.089967	0.646207	7228.614746
6549.679952	0.089960	0.646207	7317.044922
6549.680862	0.089824	0.646207	7398.785156
6549.681755	0.089883	0.646207	7479.050293
6549.682746	0.089938	0.646207	7568.178711
6549.683650	0.090070	0.646207	7649.601562
6549.684568	0.089971	0.646207	7732.194824
6549.685430	0.090026	0.646207	7809.796875
6549.686480	0.089919	0.646207	7904.212402
6550.708170	1.072214	0.645135	466.413208
6550.709044	1.554880	0.645135	1825.378662
6550.710024	1.547805	0.645135	3342.227783
6550.710953	1.507251	0.645135	4742.463867
6550.711822	1.467543	0.645135	6017.758789
6550.712859	0.941708	0.645135	6994.309570
6550.713742	0.110995	0.645135	7092.317871
6550.714665	0.089883	0.645135	7175.279785
6550.715535	0.089839	0.645135	7253.439453
6550.716515	0.089839	0.645135	7341.481445
6550.717414	0.089996	0.645135	7422.388184
6550.718332	0.090114	0.645135	7505.112305
6550.719210	0.089872	0.645135	7584.019531
6550.720190	0.089875	0.645135	7672.097656
6550.721107	0.089890	0.645135	7754.526855
6550.721988	0.089978	0.645135	7833.797363
6551.702082	1.182352	0.690333	663.299622
6551.703059	1.563900	0.690333	2191.229980
6551.703985	1.540701	0.690333	3617.918945
6551.704854	1.499744	0.690333	4921.196289
6551.705968	1.453077	0.690333	6539.924316
6551.706880	0.608137	0.690333	7094.545410
6551.707744	0.093746	0.690333	7175.542480
6551.708809	0.090040	0.690333	7271.435547
6551.709778	0.089974	0.690333	7358.620605
6551.710652	0.089875	0.690333	7437.171875
6551.711521	0.090018	0.690333	7515.397949
6551.712610	0.089993	0.690333	7613.399902
6551.713501	0.089868	0.690333	7693.472656
6551.714418	0.089996	0.690333	7775.999512
6551.715283	0.089854	0.690333	7853.722656
6551.716327	0.090018	0.690333	7947.701660
6552.737717	1.043906	0.650908	438.440613
6552.738752	1.559304	0.650908	2052.320557
6552.739717	1.542894	0.650908	3541.213379
6552.740599	1.503318	0.650908	4867.139648
6552.741484	1.462504	0.650908	6161.455566
6552.742580	0.739790	0.650908	6972.265625
6552.743459	0.096709	0.650908	7057.272949
6552.744316	0.089850	0.650908	7134.274414
6552.745345	0.090022	0.650908	7226.907227
6552.746291	0.089744	0.650908	7311.804687
6552.747206	0.090040	0.650908	7394.191406
6552.748076	0.089993	0.650908	7472.484863
6552.749168	0.090026	0.650908	7570.792969
6552.750081	0.090055	0.650908	7653.013184
6552.750958	0.090007	0.650908	7731.949707
6552.751819	0.089930	0.650908	7809.379883
6553.730493	1.048590	0.701745	446.699371
6553.731522	1.558429	0.701745	2050.322754
6553.732556	1.540089	0.701745	3642.774902
6553.733447	1.499564	0.701745	4978.886719
6553.734378	1.458270	0.701745	6336.536133
6553.735438	0.607159	0.701745	6980.125000
6553.736369	0.092216	0.701745	7065.977539
6553.737233	0.089963	0.701745	7143.706055
6553.738269	0.089956	0.701745	7236.900391
6553.739291	0.089875	0.701745	7328.752930
6553.740163	0.089989	0.701745	7407.223145
6553.741097	0.090051	0.701745	7491.331055
6553.742148	0.089916	0.701745	7585.832520
6553.743071	0.090033	0.701745	7668.933105
6553.743946	0.089963	0.701745	7747.650879
6553.744899	0.089982	0.701745	7833.403320
6554.767927	1.157003	0.662969	635.194763
6554.768991	1.563688	0.662969	2298.958496
6554.769889	1.538646	0.662969	3680.662842
6554.770764	1.497543	0.662969	4991.012695
6554.771878	1.450056	0.662969	6606.375000
6554.772840	0.453951	0.662969	7043.076172
6554.773714	0.091487	0.662969	7123.035645
6554.774762	0.089974	0.662969	7217.328613
6554.775796	0.090007	0.662969	7310.395996
6554.776689	0.090011	0.662969	7390.775879
6554.777617	0.090033	0.662969	7474.326660
6554.778654	0.089982	0.662969	7567.637695
6554.779597	0.089982	0.662969	7652.490234
6554.780463	0.089930	0.662969	7730.370117
6554.781514	0.089978	0.662969	7824.937012
6555.760626	1.079561	0.722846	506.313873
6555.761520	1.557924	0.722846	1899.097534
6555.762428	1.548574	0.722846	3305.202881
6555.763309	1.509785	0.722846	4635.323242
6555.764372	1.462178	0.722846	6189.618164
6555.765433	0.728441	0.722846	6962.494141
6555.766355	0.094574	0.722846	7049.691406
6555.767215	0.089930	0.722846	7127.031738
6555.768286	0.089982	0.722846	7223.402344
6555.769278	0.089857	0.722846	7312.540527
6555.770156	0.090048	0.722846	7391.602539
6555.771148	0.090015	0.722846	7480.896973
6555.772196	0.089908	0.722846	7575.121094
6555.773081	0.090022	0.722846	7654.790527
6555.773940	0.090029	0.722846	7732.125488
6555.775033	0.089963	0.722846	7830.455566
6556.795852	1.080154	0.684573	475.267670
6556.796738	1.555961	0.684573	1853.848999
6556.797729	1.546597	0.684573	3386.526367
6556.798787	1.500286	0.684573	4973.828613
6556.799687	1.459497	0.684573	6287.375977
6556.800560	0.867374	0.684573	7044.593750
6556.801659	0.095065	0.684573	7149.069824
6556.802617	0.090084	0.684573	7235.370605
6556.803485	0.090004	0.684573	7313.493652
6556.804521	0.090103	0.684573	7406.839844
6556.805557	0.089993	0.684573	7500.072266
6556.806447	0.090015	0.684573	7580.185547
6556.807368	0.090125	0.684573	7663.190430
6556.808417	0.089993	0.684573	7757.592773
6556.809360	0.090029	0.684573	7842.490234
6556.810222	0.090059	0.684573	7920.120605
6557.792189	1.050311	0.741440	445.332001
6557.793105	1.553339	0.741440	1868.190186
6557.794066	1.548003	0.741440	3355.821045
6557.794996	1.506859	0.741440	4757.200195
6557.795864	1.467272	0.741440	6030.791992
6557.796804	1.012020	0.741440	6982.090820
6557.797750	0.114818	0.741440	7090.708984
6557.798671	0.089912	0.741440	7173.518066
6557.799546	0.089879	0.741440	7252.162109
6557.800511	0.089901	0.741440	7338.916504
6557.801458	0.090051	0.741440	7424.194824
6557.802345	0.090055	0.741440	7504.073730
6557.803205	0.089886	0.741440	7581.375977
6557.804173	0.090066	0.741440	7668.559570
6557.805116	0.089974	0.741440	7753.405273
6557.805998	0.090022	0.741440	7832.804687
6558.824938	1.069764	0.681757	493.161438
6558.825818	1.556561	0.681757	1862.935547
6558.826710	1.548168	0.681757	3243.901123
6558.827809	1.501029	0.681757	4893.532227
6558.828827	1.456106	0.681757	6375.848145
6558.829720	0.764886	0.681757	7058.891602
6558.830683	0.098123	0.681757	7153.383789
6558.831744	0.089978	0.681757	7248.850586
6558.832656	0.089923	0.681757	7330.860352
6558.833524	0.089982	0.681757	7408.964355
6558.834594	0.089989	0.681757	7505.252441
6558.835586	0.090117	0.681757	7594.648926
6558.836471	0.089952	0.681757	7674.256836
6558.837440	0.090026	0.681757	7761.491699
6558.838499	0.090029	0.681757	7856.832520
6558.839411	0.090026	0.681757	7938.936035
6559.819782	1.120986	0.747825	561.614136
6559.820733	1.559670	0.747825	2044.860718
6559.821663	1.544235	0.747825	3480.999023
6559.822525	1.505061	0.747825	4778.361328
6559.823480	1.462855	0.747825	6175.388184
6559.824453	0.888754	0.747825	7040.145508
6559.825347	0.102689	0.747825	7131.949707
6559.826228	0.090011	0.747825	7211.249512
6559.827182	0.089993	0.747825	7297.102539
6559.828130	0.089843	0.747825	7382.273437
6559.829016	0.090099	0.747825	7462.101074
6559.829923	0.089835	0.747825	7543.581543
6559.830885	0.089883	0.747825	7630.048828
6559.831811	0.089978	0.747825	7713.368652
6559.832669	0.090011	0.747825	7790.598145
6559.833585	0.089930	0.747825	7872.974609
6560.854006	1.089811	0.699929	513.300842
6560.854894	1.557341	0.699929	1896.219727
6560.855758	1.550032	0.699929	3235.447021
6560.856725	1.508778	0.699929	4694.435547
6560.857646	1.465474	0.699929	6044.136719
6560.858575	1.046667	0.699929	7016.490723
6560.859450	0.124808	0.699929	7125.698242
6560.860432	0.089945	0.699929	7214.024414
6560.861382	0.089890	0.699929	7299.419922
6560.862276	0.090000	0.699929	7379.879883
6560.863183	0.090128	0.699929	7461.625977
6560.864135	0.089974	0.699929	7547.281738
6560.865064	0.089861	0.699929	7630.762695
6560.865927	0.090055	0.699929	7708.479980
6560.866909	0.089963	0.699929	7796.824219
6560.867852	0.090004	0.699929	7881.697754
6561.849861	1.145438	0.763262	571.573669
6561.850791	1.560128	0.763262	2022.492920
6561.851720	1.545026	0.763262	3457.821777
6561.852580	1.505764	0.763262	4752.778809
6561.853527	1.463760	0.763262	6138.958984
6561.854488	0.935010	0.763262	7037.503418
6561.855377	0.107999	0.763262	7133.514648
6561.856282	0.089773	0.763262	7214.759277
6561.857204	0.089875	0.763262	7297.624512
6561.858150	0.089945	0.763262	7382.712402
6561.859040	0.090018	0.763262	7462.828613
6561.859960	0.089949	0.763262	7545.581543
6561.860919	0.089963	0.763262	7631.856445
6561.861844	0.090022	0.763262	7715.126953
6561.862712	0.090015	0.763262	7793.259766
6561.863769	0.089996	0.763262	7888.385742
6562.883668	1.185344	0.709307	680.387573
6562.884713	1.563391	0.709307	2314.131348
6562.885613	1.537910	0.709307	3698.250488
6562.886487	1.497349	0.709307	5006.933105
6562.887558	1.451074	0.709307	6561.033691
6562.888563	0.428932	0.709307	6992.110352
6562.889457	0.090945	0.709307	7073.415039
6562.890452	0.090037	0.709307	7163.001465
6562.891492	0.089912	0.709307	7256.510254
6562.892394	0.089956	0.709307	7337.650391
6562.893258	0.089985	0.709307	7415.397949
6562.894366	0.090029	0.709307	7515.150391
6562.895338	0.089839	0.709307	7602.473633
6562.896207	0.089872	0.709307	7680.572266
6562.897260	0.089978	0.709307	7775.319336
6562.898296	0.089890	0.709307	7868.445312
6563.878846	1.064344	0.764088	450.217682
6563.879826	1.558323	0.764088	1977.374023
6563.880762	1.545546	0.764088	3424.004639
6563.881644	1.506698	0.764088	4752.912109
6563.882566	1.465558	0.764088	6104.156250
6563.883526	0.982123	0.764088	7046.994141
6563.884431	0.111010	0.764088	7147.457520
6563.885312	0.089949	0.764088	7226.702148
6563.886234	0.089832	0.764088	7309.526855
6563.887169	0.089861	0.764088	7393.546875
6563.888095	0.089974	0.764088	7476.863281
6563.888959	0.089971	0.764088	7554.598145
6563.889928	0.089843	0.764088	7641.655762
6563.890868	0.089810	0.764088	7726.076660
6563.891758	0.089916	0.764088	7806.101562
6563.892671	0.090168	0.764088	7888.425293
6564.912639	1.085186	0.714499	533.911255
6564.913570	1.560051	0.714499	1986.318970
6564.914494	1.545022	0.714499	3413.919434
6564.915374	1.506160	0.714499	4739.339844
6564.916309	1.463928	0.714499	6108.112793
6564.917255	0.942957	0.714499	7000.149414
6564.918181	0.106132	0.714499	7098.427246
6564.919046	0.089857	0.714499	7176.153809
6564.920012	0.089890	0.714499	7262.987793
6564.920957	0.090099	0.714499	7348.131348
6564.921846	0.090040	0.714499	7428.177246
6564.922778	0.090022	0.714499	7512.077637
6564.923714	0.089919	0.714499	7596.242187
6564.924615	0.090040	0.714499	7677.368652
6564.925507	0.089821	0.714499	7757.488770
6564.926414	0.089839	0.714499	7838.972656
6565.906900	1.077034	0.767588	463.124512
6565.907794	1.555671	0.767588	1853.894653
6565.908655	1.549944	0.767588	3188.396240
6565.909634	1.508738	0.767588	4665.450684
6565.910588	1.466166	0.767588	6064.172852
6565.911468	1.102474	0.767588	7034.350098
6565.912378	0.135985	0.767588	7158.096680
6565.913332	0.089799	0.767588	7243.764648
6565.914254	0.089897	0.767588	7326.649902
6565.915131	0.089956	0.767588	7405.541504
6565.916059	0.089879	0.767588	7488.949219
6565.916993	0.089850	0.767588	7572.869141
6565.917920	0.089941	0.767588	7656.244629
6565.918780	0.090026	0.767588	7733.666504
6565.919749	0.090015	0.767588	7820.890625
6565.920698	0.089890	0.767588	7906.196289
6566.940623	1.076594	0.738238	472.624878
6566.941491	1.554646	0.738238	1822.057495
6566.942416	1.548721	0.738238	3254.624023
6566.943379	1.507412	0.738238	4706.261719
6566.944299	1.466019	0.738238	6054.999512
6566.945175	1.099266	0.738238	7017.957031
6566.946156	0.120560	0.738238	7136.226562
6566.947103	0.089835	0.738238	7221.300293
6566.947994	0.089941	0.738238	7301.437988
6566.948864	0.089908	0.738238	7379.658203
6566.949822	0.089934	0.738238	7465.814941
6566.950769	0.089747	0.738238	7550.805664
6566.951644	0.089974	0.738238	7629.533203
6566.952556	0.089729	0.738238	7711.366211
6566.953507	0.089857	0.738238	7796.820312
6566.954434	0.090055	0.738238	7880.301270
6567.936508	1.098285	0.775701	523.881897
6567.937396	1.557755	0.775701	1907.168457
6567.938262	1.548823	0.775701	3248.449219
6567.939220	1.507570	0.775701	4692.700684
6567.940183	1.464386	0.775701	6102.904297
6567.941095	1.020981	0.775701	7034.039551
6567.941993	0.121663	0.775701	7143.292480
6567.942932	0.089762	0.775701	7227.579102
6567.943879	0.089901	0.775701	7312.715332
6567.944766	0.089912	0.775701	7392.467285
6567.945685	0.089769	0.775701	7474.965332
6567.946635	0.089890	0.775701	7560.360840
6567.947558	0.090004	0.775701	7643.434082
6567.948421	0.089919	0.775701	7721.034668
6567.949336	0.089839	0.775701	7803.237305
6567.950287	0.089832	0.775701	7888.666992
6568.969199	1.127970	0.727712	534.657776
6568.970150	1.560128	0.727712	2018.339600
6568.971074	1.545077	0.727712	3445.990723
6568.971943	1.505988	0.727712	4754.693848
6568.972909	1.463500	0.727712	6168.434570
6568.973865	0.925873	0.727712	7053.568848
6568.974756	0.108153	0.727712	7149.933105
6568.975671	0.089864	0.727712	7232.159180
6568.976613	0.090084	0.727712	7317.018555
6568.977530	0.089894	0.727712	7399.451172
6568.978406	0.090070	0.727712	7478.352051
6568.979317	0.090062	0.727712	7560.398926
6568.980274	0.089985	0.727712	7646.515137
6568.981194	0.089930	0.727712	7729.250977
6568.982061	0.090015	0.727712	7807.293457
6568.983122	0.089927	0.727712	7902.705566
6569.965560	1.136133	0.774138	551.024414
6569.966520	1.560183	0.774138	2048.800293
6569.967452	1.544154	0.774138	3487.951904
6569.968317	1.504526	0.774138	4789.367187
6569.969292	1.462079	0.774138	6214.894043
6569.970228	0.885923	0.774138	7044.117676
6569.971122	0.104337	0.774138	7137.395020
6569.972032	0.090022	0.774138	7219.314941
6569.972998	0.089843	0.774138	7306.103027
6569.973921	0.089919	0.774138	7389.098633
6569.974795	0.089993	0.774138	7467.752441
6569.975730	0.090029	0.774138	7551.929687
6569.976673	0.089817	0.774138	7636.626953
6569.977601	0.089960	0.774138	7720.109375
6569.978462	0.089945	0.774138	7797.552246
6569.979435	0.089941	0.774138	7885.065430
6570.996701	1.085713	0.750980	486.399384
6570.997574	1.555686	0.750980	1844.513306
6570.998487	1.549849	0.750980	3259.525146
6570.999426	1.508525	0.750980	4676.030273
6571.000369	1.465880	0.750980	6058.355469
6571.001242	1.106539	0.750980	7024.364258
6571.002165	0.128719	0.750980	7143.172363
6571.003124	0.089890	0.750980	7229.376953
6571.004040	0.089952	0.750980	7311.773437
6571.004915	0.089978	0.750980	7390.504395
6571.005882	0.089974	0.750980	7477.509766
6571.006811	0.089897	0.750980	7561.024414
6571.007722	0.089996	0.750980	7643.011230
6571.008585	0.089927	0.750980	7720.618164
6571.009553	0.090015	0.750980	7807.752441
6571.010498	0.089824	0.750980	7892.636230
6571.996151	1.089547	0.778698	519.713989
6571.997026	1.557378	0.778698	1882.419678
6571.997894	1.549493	0.778698	3227.379883
6571.998850	1.508434	0.778698	4669.442383
6571.999804	1.465155	0.778698	6067.200195
6572.000716	1.053483	0.778698	7027.976562
6572.001582	0.127361	0.778698	7138.270996
6572.002541	0.089927	0.778698	7224.510742
6572.003485	0.090000	0.778698	7309.470703
6572.004373	0.090000	0.778698	7389.390625
6572.005298	0.089927	0.778698	7472.572754
6572.006253	0.089974	0.778698	7558.498047
6572.007156	0.089978	0.778698	7639.748047
6572.008038	0.090095	0.778698	7719.211914
6572.008964	0.089960	0.778698	7802.514648
6572.009899	0.089857	0.778698	7886.531250
6573.025793	1.086559	0.750524	537.846619
6573.026847	1.561849	0.750524	2184.035889
6573.027793	1.538745	0.750524	3639.688721
6573.028663	1.499081	0.750524	4943.889160
6573.029723	1.452601	0.750524	6483.646484
6573.030750	0.472123	0.750524	6968.516602
6573.031643	0.091252	0.750524	7050.004883
6573.032603	0.089934	0.750524	7136.341797
6573.033658	0.089894	0.750524	7231.179687
6573.034579	0.089949	0.750524	7314.022461
6573.035441	0.089978	0.750524	7391.583496
6573.036521	0.090026	0.750524	7488.811035
6573.037511	0.089835	0.750524	7577.748047
6573.038396	0.089963	0.750524	7657.365723
6573.039382	0.090059	0.750524	7746.163574
6573.040412	0.089996	0.750524	7838.859863
6574.022134	1.125201	0.782888	538.971497
6574.023070	1.559403	0.782888	1998.572754
6574.023993	1.545509	0.782888	3425.077637
6574.024857	1.506108	0.782888	4726.355469
6574.025816	1.463562	0.782888	6129.911133
6574.026770	0.946937	0.782888	7033.289062
6574.027664	0.108625	0.782888	7130.400391
6574.028580	0.089791	0.782888	7212.649414
6574.029537	0.089934	0.782888	7298.716309
6574.030464	0.089952	0.782888	7382.102051
6574.031348	0.090103	0.782888	7461.752930
6574.032360	0.089967	0.782888	7552.799805
6574.033406	0.089971	0.782888	7646.909180
6574.034339	0.089868	0.782888	7730.756348
6574.035198	0.089949	0.782888	7808.022461
6574.036262	0.090048	0.782888	7903.833008
6575.052816	1.131877	0.754267	565.938721
6575.053835	1.562769	0.754267	2158.399902
6575.054726	1.542129	0.754267	3532.436768
6575.055691	1.499359	0.754267	4979.318359
6575.056764	1.451799	0.754267	6537.099121
6575.057700	0.554040	0.754267	7055.681152
6575.058558	0.092952	0.754267	7135.433594
6575.059642	0.090000	0.754267	7232.993652
6575.060636	0.089978	0.754267	7322.431641
6575.061527	0.089952	0.754267	7402.579102
6575.062519	0.090015	0.754267	7491.873535
6575.063558	0.090011	0.754267	7585.395020
6575.064457	0.090015	0.754267	7666.318359
6575.065314	0.089960	0.754267	7743.414062
6575.066390	0.090092	0.754267	7840.352539
6575.067375	0.089846	0.754267	7928.851074
6576.052705	1.096707	0.774062	507.775116
6576.053602	1.557385	0.774062	1904.749756
6576.054482	1.549101	0.774062	3267.958984
6576.055462	1.506749	0.774062	4744.573242
6576.056497	1.460054	0.774062	6255.728516
6576.057456	0.820474	0.774062	7042.562500
6576.058316	0.101726	0.774062	7130.046875
6576.059365	0.090062	0.774062	7224.521973
6576.060372	0.090033	0.774062	7315.185059
6576.061257	0.090018	0.774062	7394.851074
6576.062212	0.090029	0.774062	7480.829102
6576.063252	0.089993	0.774062	7574.421387
6576.064183	0.089941	0.774062	7658.156738
6576.065042	0.090088	0.774062	7735.541992
6576.066086	0.089963	0.774062	7829.463867
6576.067103	0.090099	0.774062	7921.094238
6577.081782	1.057467	0.759443	445.193604
6577.082850	1.560483	0.759443	2111.790039
6577.083841	1.538932	0.759443	3636.871582
6577.084738	1.498960	0.759443	4981.438477
6577.085729	1.455407	0.759443	6423.746094
6577.086792	0.543541	0.759443	7001.530273
6577.087681	0.091472	0.759443	7082.849121
6577.088553	0.089905	0.759443	7161.246094
6577.089647	0.089912	0.759443	7259.609863
6577.090608	0.090004	0.759443	7346.103516
6577.091475	0.089963	0.759443	7424.101562
6577.092512	0.089945	0.759443	7517.374512
6577.093546	0.089949	0.759443	7610.381348
6577.094431	0.089952	0.759443	7689.989258
6577.095361	0.090040	0.759443	7773.726562
6577.096422	0.090114	0.759443	7869.336914
6578.079754	1.123381	0.783138	565.060791
6578.080672	1.560436	0.783138	1997.540771
6578.081544	1.546209	0.783138	3345.834473
6578.082620	1.499121	0.783138	4958.888672
6578.083623	1.454872	0.783138	6418.125000
6578.084518	0.738311	0.783138	7078.913086
6578.085486	0.096885	0.783138	7172.697754
6578.086530	0.089934	0.783138	7266.588867
6578.087442	0.089901	0.783138	7348.578613
6578.088321	0.089967	0.783138	7427.659668
6578.089322	0.089996	0.783138	7517.746094
6578.090317	0.089916	0.783138	7607.212402
6578.091194	0.089868	0.783138	7686.026855
6578.092050	0.089971	0.783138	7763.041992
6578.093114	0.089912	0.783138	7858.708496
6578.094031	0.089927	0.783138	7941.171387
6579.109911	1.123462	0.754903	571.842163
6579.110796	1.559773	0.754903	1952.241211
6579.111671	1.545806	0.754903	3304.821045
6579.112783	1.498451	0.754903	4971.098633
6579.113743	1.456146	0.754903	6368.999023
6579.114618	0.808015	0.754903	7076.012207
6579.115641	0.095555	0.754903	7173.765625
6579.116675	0.090044	0.754903	7266.871094
6579.117564	0.089952	0.754903	7346.838867
6579.118426	0.089956	0.754903	7424.380859
6579.119464	0.089850	0.754903	7517.645020
6579.120412	0.089868	0.754903	7602.839844
6579.121284	0.089916	0.754903	7681.246582
6579.122169	0.089894	0.754903	7760.802734
6579.123259	0.089989	0.754903	7858.890625
6579.124138	0.089985	0.754903	7937.987793
6580.109836	1.116218	0.780088	561.457764
6580.110715	1.558748	0.780088	1931.596802
6580.111605	1.546366	0.780088	3307.862549
6580.112704	1.498887	0.780088	4955.139160
6580.113672	1.456285	0.780088	6364.823242
6580.114546	0.814281	0.780088	7076.504883
6580.115597	0.094849	0.780088	7176.190918
6580.116616	0.089894	0.780088	7267.792480
6580.117510	0.089971	0.780088	7348.226074
6580.118447	0.089949	0.780088	7432.507812
6580.119505	0.089894	0.780088	7527.615234
6580.120447	0.089919	0.780088	7612.319336
6580.121312	0.089938	0.780088	7690.115723
6580.122376	0.090037	0.780088	7785.914551
6580.123378	0.089868	0.780088	7875.962402
6580.124259	0.089989	0.780088	7955.242676
6581.138461	1.119174	0.758726	584.208557
6581.139530	1.562633	0.758726	2254.663330
6581.140439	1.538262	0.758726	3652.943359
6581.141304	1.498396	0.758726	4949.055664
6581.142395	1.451484	0.758726	6532.625000
6581.143401	0.454534	0.758726	6989.885742
6581.144278	0.091300	0.758726	7069.956055
6581.145280	0.089996	0.758726	7160.132324
6581.146318	0.090000	0.758726	7253.552246
6581.147214	0.089952	0.758726	7334.149414
6581.148074	0.089952	0.758726	7411.508301
6581.149133	0.089919	0.758726	7506.732910
6581.150097	0.090070	0.758726	7593.560059
6581.150980	0.090070	0.758726	7673.091309
6581.151962	0.090029	0.758726	7761.500000
6581.153006	0.090015	0.758726	7855.475098
6582.138402	1.129706	0.775061	594.225220
6582.139463	1.562465	0.775061	2252.000000
6582.140385	1.537910	0.775061	3669.953125
6582.141251	1.497638	0.775061	4966.907227
6582.142339	1.451287	0.775061	6545.907227
6582.143333	0.456559	0.775061	6999.726562
6582.144216	0.091432	0.775061	7080.460937
6582.145206	0.090070	0.775061	7169.629883
6582.146262	0.090051	0.775061	7264.724121
6582.147149	0.090037	0.775061	7344.586426
6582.148005	0.090004	0.775061	7421.629395
6582.149102	0.090095	0.775061	7520.463867
6582.150070	0.089908	0.775061	7607.495117
6582.150927	0.090015	0.775061	7684.637695
6582.151991	0.090084	0.775061	7780.487305
6582.153022	0.089989	0.775061	7873.266113
6583.165968	1.129233	0.763846	571.392090
6583.166880	1.560538	0.763846	1994.603149
6583.167750	1.545872	0.763846	3339.511475
6583.168821	1.499355	0.763846	4945.321289
6583.169818	1.455161	0.763846	6396.117187
6583.170711	0.763125	0.763846	7077.587891
6583.171698	0.097064	0.763846	7173.390137
6583.172753	0.089857	0.763846	7268.189453
6583.173664	0.089912	0.763846	7350.099609
6583.174526	0.090051	0.763846	7427.723633
6583.175622	0.089963	0.763846	7526.323730
6583.176605	0.089846	0.763846	7614.642578
6583.177472	0.089963	0.763846	7692.640625
6583.178570	0.090007	0.763846	7791.468750
6583.179606	0.089857	0.763846	7884.560547
6583.180500	0.089963	0.763846	7964.987793
6584.166884	1.087679	0.779649	491.631073
6584.167750	1.554807	0.779649	1838.093994
6584.168829	1.541935	0.779649	3501.841553
6584.169819	1.497568	0.779649	4984.434082
6584.170707	1.458355	0.779649	6279.453125
6584.171696	0.746634	0.779649	7017.874512
6584.172752	0.092926	0.779649	7116.004395
6584.173643	0.090029	0.779649	7196.220703
6584.174524	0.090004	0.779649	7275.514160
6584.175625	0.089989	0.779649	7374.592285
6584.176584	0.089883	0.779649	7460.790039
6584.177452	0.089985	0.779649	7538.897461
6584.178496	0.089996	0.779649	7632.853516
6584.179526	0.089960	0.779649	7725.512207
6584.180417	0.090048	0.779649	7805.744629
6584.181365	0.089919	0.779649	7890.988281
6585.196042	1.123407	0.742315	557.209900
6585.196922	1.558649	0.742315	1928.820801
6585.197832	1.545985	0.742315	3335.667236
6585.198915	1.498634	0.742315	4958.687988
6585.199862	1.456860	0.742315	6338.334961
6585.200734	0.842780	0.742315	7073.238770
6585.201767	0.095991	0.742315	7172.397461
6585.202798	0.089839	0.742315	7265.021484
6585.203690	0.089930	0.742315	7345.239258
6585.204649	0.089952	0.742315	7431.503418
6585.205704	0.089985	0.742315	7526.437988
6585.206639	0.089945	0.742315	7610.536621
6585.207502	0.089952	0.742315	7688.165527
6585.208569	0.089949	0.742315	7784.140625
6585.209569	0.089879	0.742315	7874.019531
6585.210460	0.089967	0.742315	7954.180176
6586.195971	1.117573	0.778287	550.963623
6586.196853	1.558334	0.778287	1925.413940
6586.197787	1.545945	0.778287	3369.326416
6586.198863	1.498667	0.778287	4981.892090
6586.199808	1.456703	0.778287	6358.476562
6586.200673	0.832339	0.778287	7078.449707
6586.201721	0.095024	0.778287	7178.035156
6586.202748	0.089941	0.778287	7270.404785
6586.203638	0.090103	0.778287	7350.596191
6586.204597	0.089960	0.778287	7436.867676
6586.205655	0.090062	0.778287	7532.153320
6586.206581	0.090044	0.778287	7615.534180
6586.207445	0.089960	0.778287	7693.259277
6586.208516	0.090029	0.778287	7789.680664
6586.209500	0.089963	0.778287	7878.204590
6586.210392	0.090011	0.778287	7958.494629
6587.223996	1.053157	0.753747	443.378998
6587.225053	1.558846	0.753747	2091.079590
6587.226062	1.538917	0.753747	3643.847168
6587.226938	1.499418	0.753747	4957.336914
6587.227940	1.456223	0.753747	6416.472656
6587.228978	0.576233	0.753747	7014.602539
6587.229871	0.091901	0.753747	7096.669922
6587.230740	0.089890	0.753747	7174.784668
6587.231812	0.089985	0.753747	7271.249023
6587.232801	0.089832	0.753747	7360.092285
6587.233693	0.089956	0.753747	7440.333008
6587.234672	0.089963	0.753747	7528.407227
6587.235730	0.089901	0.753747	7623.522461
6587.236631	0.090059	0.753747	7704.665039
6587.237492	0.089872	0.753747	7782.044922
6587.238587	0.090026	0.753747	7880.623047
6588.223989	1.094725	0.778964	516.710388
6588.224925	1.558737	0.778964	1975.687744
6588.225804	1.547018	0.778964	3335.516357
6588.226717	1.506980	0.778964	4711.389160
6588.227651	1.464119	0.778964	6078.875977
6588.228598	0.975608	0.778964	7002.776855
6588.229495	0.112445	0.778964	7103.640137
6588.230401	0.089938	0.778964	7185.123535
6588.231340	0.089941	0.778964	7269.578613
6588.232255	0.089978	0.778964	7351.908691
6588.233119	0.089971	0.778964	7429.643555
6588.234091	0.089956	0.778964	7517.081055
6588.235049	0.089854	0.778964	7603.160645
6588.235940	0.089952	0.778964	7683.308105
6588.236831	0.090011	0.778964	7763.507812
6588.237762	0.089945	0.778964	7847.246582
6589.252538	1.047246	0.749509	438.796112
6589.253459	1.553932	0.749509	1869.967407
6589.254395	1.547201	0.749509	3318.147461
6589.255332	1.506621	0.749509	4729.851562
6589.256199	1.466781	0.749509	6001.550781
6589.257175	1.036113	0.749509	7012.797363
6589.258118	0.117015	0.749509	7123.143066
6589.259017	0.089945	0.749509	7204.003906
6589.259905	0.089711	0.749509	7283.666992
6589.260829	0.089861	0.749509	7366.698242
6589.261774	0.089949	0.749509	7451.699707
6589.262667	0.090033	0.749509	7532.099121
6589.263579	0.089879	0.749509	7614.068848
6589.264535	0.089996	0.749509	7700.105469
6589.265450	0.089952	0.749509	7782.412109
6589.266326	0.090040	0.749509	7861.287598
6590.252481	1.065201	0.775218	454.841003
6590.253450	1.556847	0.775218	1963.425537
6590.254386	1.545139	0.775218	3409.675781
6590.255279	1.505596	0.775218	4754.172852
6590.256202	1.465100	0.775218	6106.459961
6590.257135	0.979036	0.775218	7019.900391
6590.258080	0.107325	0.775218	7121.322754
6590.258972	0.090007	0.775218	7201.609375
6590.259898	0.089927	0.775218	7284.881348
6590.260850	0.089905	0.775218	7370.470703
6590.261777	0.090015	0.775218	7453.914062
6590.262639	0.089901	0.775218	7531.408691
6590.263578	0.089934	0.775218	7615.856934
6590.264532	0.089930	0.775218	7701.650391
6590.265422	0.089993	0.775218	7781.743652
6590.266316	0.090040	0.775218	7862.239746
6591.281591	1.046796	0.732417	437.560577
6591.282477	1.552665	0.732417	1813.221558
6591.283431	1.547300	0.732417	3289.345703
6591.284389	1.505933	0.732417	4732.029297
6591.285287	1.465602	0.732417	6048.139648
6591.286205	1.052021	0.732417	7013.895508
6591.287170	0.115554	0.732417	7125.405273
6591.288097	0.089916	0.732417	7208.757324
6591.288959	0.089989	0.732417	7286.327637
6591.289921	0.089857	0.732417	7372.770020
6591.290862	0.089952	0.732417	7457.415039
6591.291753	0.089974	0.732417	7537.582031
6591.292622	0.089967	0.732417	7615.763184
6591.293581	0.089952	0.732417	7702.027344
6591.294530	0.089978	0.732417	7787.416504
6591.295429	0.089956	0.732417	7868.287109
6592.281537	1.054340	0.776869	451.257355
6592.282458	1.554921	0.776869	1883.339233
6592.283391	1.546655	0.776869	3326.368652
6592.284313	1.506486	0.776869	4715.348633
6592.285192	1.466481	0.776869	6004.385254
6592.286157	1.038435	0.776869	7006.475098
6592.287114	0.115682	0.776869	7117.183105
6592.288006	0.089839	0.776869	7197.319336
6592.288917	0.089952	0.776869	7279.266113
6592.289850	0.089872	0.776869	7363.116699
6592.290786	0.089766	0.776869	7447.137207
6592.291664	0.090059	0.776869	7526.208496
6592.292594	0.090121	0.776869	7610.020996
6592.293526	0.089956	0.776869	7693.859863
6592.294447	0.089949	0.776869	7776.702637
6592.295323	0.089967	0.776869	7855.513672
6593.309703	1.133152	0.740570	548.445435
6593.310593	1.558165	0.740570	1935.212402
6593.311463	1.548274	0.740570	3282.210693
6593.312378	1.507972	0.740570	4662.005371
6593.313343	1.464781	0.740570	6075.519531
6593.314280	1.020736	0.740570	7031.949219
6593.315156	0.119498	0.740570	7136.629883
6593.316134	0.089897	0.740570	7224.549805
6593.317073	0.089967	0.740570	7309.028809
6593.317974	0.089956	0.740570	7390.079102
6593.318860	0.089941	0.740570	7469.767090
6593.319806	0.089996	0.740570	7554.903809
6593.320758	0.089971	0.740570	7640.556152
6593.321629	0.089912	0.740570	7718.869629
6593.322542	0.090048	0.740570	7801.083008
6593.323486	0.089952	0.740570	7885.998047
6594.309578	1.062755	0.774497	465.486725
6594.310452	1.553892	0.774497	1823.587891
6594.311312	1.550453	0.774497	3156.977539
6594.312271	1.509642	0.774497	4604.724609
6594.313203	1.467795	0.774497	5972.709961
6594.314093	1.163928	0.774497	7008.605957
6594.315007	0.152040	0.774497	7147.570312
6594.315966	0.089927	0.774497	7233.810059
6594.316909	0.089982	0.774497	7318.662598
6594.317798	0.089967	0.774497	7398.643066
6594.318726	0.089963	0.774497	7482.128906
6594.319671	0.089894	0.774497	7567.078613
6594.320595	0.089985	0.774497	7650.225098
6594.321459	0.090011	0.774497	7727.994629
6594.322381	0.089960	0.774497	7810.937500
6594.323316	0.089938	0.774497	7895.029297
6595.337144	1.043448	0.735120	437.204895
6595.338020	1.551984	0.735120	1796.742676
6595.339010	1.546886	0.735120	3328.159668
6595.339941	1.505973	0.735120	4730.220703
6595.340825	1.466440	0.735120	6026.554199
6595.341789	1.024105	0.735120	7013.791504
6595.342748	0.114807	0.735120	7123.891602
6595.343677	0.089857	0.735120	7207.369141
6595.344541	0.089908	0.735120	7285.049805
6595.345461	0.089927	0.735120	7367.782227
6595.346404	0.089806	0.735120	7452.469238
6595.347319	0.089883	0.735120	7534.711914
6595.348191	0.089971	0.735120	7613.166504
6595.349163	0.089923	0.735120	7700.571777
6595.350080	0.089886	0.735120	7782.997559
6595.350946	0.089993	0.735120	7860.931152
6596.337654	1.083201	0.771794	527.518677
6596.338652	1.561289	0.771794	2085.685059
6596.339581	1.542089	0.771794	3518.285400
6596.340447	1.502864	0.771794	4819.765625
6596.341539	1.455989	0.771794	6409.705078
6596.342427	0.763055	0.771794	7087.298340
6596.343289	0.097936	0.771794	7171.718750
6596.344162	0.089784	0.771794	7250.100098
6596.345210	0.089963	0.771794	7344.381836
6596.346100	0.089828	0.771794	7424.328613
6596.346975	0.089963	0.771794	7503.046387
6596.347970	0.089908	0.771794	7592.505371
6596.348918	0.089773	0.771794	7677.610352
6596.349838	0.089879	0.771794	7760.299316
6596.350700	0.089985	0.771794	7837.866699
6596.351727	0.089872	0.771794	7930.165039
6597.366737	1.080366	0.716038	474.280731
6597.367702	1.554375	0.716038	1974.252686
6597.368673	1.543440	0.716038	3472.932861
6597.369594	1.502659	0.716038	4856.881836
6597.370457	1.463079	0.716038	6119.518555
6597.371499	0.839692	0.716038	6994.478027
6597.372391	0.100320	0.716038	7083.963379
6597.373267	0.089886	0.716038	7162.704102
6597.374170	0.090026	0.716038	7243.997070
6597.375165	0.089879	0.716038	7333.426758
6597.376092	0.089908	0.716038	7416.771973
6597.376967	0.089872	0.716038	7495.409668
6597.377969	0.089890	0.716038	7585.479492
6597.378883	0.089930	0.716038	7667.675781
6597.379807	0.089901	0.716038	7750.744629
6597.380667	0.090066	0.716038	7828.201172
6598.366649	1.058657	0.768551	446.753326
6598.367747	1.560604	0.768551	2160.296875
6598.368668	1.540521	0.768551	3579.116943
6598.369543	1.501428	0.768551	4892.866699
6598.370522	1.458695	0.768551	6320.929199
6598.371542	0.680951	0.768551	7015.499023
6598.372427	0.094856	0.768551	7099.446777
6598.373293	0.090000	0.768551	7177.386719
6598.374256	0.089919	0.768551	7263.979004
6598.375213	0.089875	0.768551	7349.989746
6598.376118	0.090015	0.768551	7431.453125
6598.376995	0.089886	0.768551	7510.283691
6598.378033	0.089828	0.768551	7603.524902
6598.378925	0.089934	0.768551	7683.746094
6598.379797	0.089949	0.768551	7762.181152
6598.380688	0.089843	0.768551	7842.230957
6599.395275	1.074141	0.726955	465.102905
6599.396148	1.554419	0.726955	1822.110596
6599.397117	1.547216	0.726955	3321.362549
6599.398134	1.502355	0.726955	4849.257324
6599.399033	1.462123	0.726955	6163.705566
6599.399902	0.999445	0.726955	7032.222656
6599.400989	0.100236	0.726955	7141.178711
6599.401926	0.089843	0.726955	7225.361328
6599.402801	0.090081	0.726955	7304.181641
6599.403764	0.089989	0.726955	7390.840820
6599.404770	0.089905	0.726955	7481.285156
6599.405643	0.089952	0.726955	7559.813477
6599.406509	0.090033	0.726955	7637.782227
6599.407486	0.089941	0.726955	7725.654785
6599.408420	0.089861	0.726955	7809.584961
6599.409332	0.090022	0.726955	7891.685059
6600.393745	1.130387	0.775206	575.366943
6600.394740	1.562552	0.775206	2130.106689
6600.395640	1.542191	0.775206	3518.078613
6600.396616	1.499007	0.775206	4981.109863
6600.397673	1.452283	0.775206	6516.172852
6600.398587	0.609661	0.775206	7073.402832
6600.399450	0.093845	0.775206	7154.391113
6600.400552	0.089996	0.775206	7253.566895
6600.401537	0.089960	0.775206	7342.177246
6600.402416	0.089978	0.775206	7421.268066
6600.403417	0.089993	0.775206	7511.350586
6600.404459	0.089989	0.775206	7605.119141
6600.405343	0.089952	0.775206	7684.637207
6600.406211	0.090077	0.775206	7762.823730
6600.407330	0.090029	0.775206	7863.566406
6600.408269	0.090022	0.775206	7948.097168
6601.422780	1.074408	0.707901	458.772186
6601.423893	1.561582	0.707901	2196.812988
6601.424855	1.538181	0.707901	3676.543457
6601.425725	1.498799	0.707901	4980.498047
6601.426768	1.452898	0.707901	6495.870605
6601.427804	0.489562	0.707901	7003.056641
6601.428691	0.091421	0.707901	7084.146973
6601.429621	0.089916	0.707901	7167.768555
6601.430666	0.089978	0.707901	7261.795410
6601.431601	0.090004	0.707901	7345.948730
6601.432462	0.090059	0.707901	7423.489258
6601.433510	0.089989	0.707901	7517.797852
6601.434530	0.090048	0.707901	7609.646484
6601.435411	0.089824	0.707901	7688.781738
6601.436353	0.089982	0.707901	7773.544434
6601.437397	0.090073	0.707901	7867.581055
6602.422750	1.083622	0.760329	498.466064
6602.423687	1.558315	0.760329	1958.607544
6602.424566	1.547051	0.760329	3318.465332
6602.425478	1.507236	0.760329	4693.064941
6602.426436	1.464705	0.760329	6096.251953
6602.427367	1.013229	0.760329	7039.567871
6602.428233	0.121381	0.760329	7144.683594
6602.429156	0.089725	0.760329	7227.500000
6602.430109	0.089930	0.760329	7313.203613
6602.431030	0.089916	0.760329	7396.016113
6602.431905	0.089879	0.760329	7474.660156
6602.432878	0.089806	0.760329	7562.041504
6602.433824	0.089916	0.760329	7647.102051
6602.434717	0.089897	0.760329	7727.380371
6602.435623	0.089791	0.760329	7808.731445
6602.436557	0.089923	0.760329	7892.719727
6603.451323	1.046982	0.715945	441.826569
6603.452240	1.555485	0.715945	1868.205933
6603.453187	1.546150	0.715945	3332.409668
6603.454117	1.505581	0.715945	4732.600098
6603.454999	1.465664	0.715945	6025.315918
6603.455976	1.002070	0.715945	7004.338867
6603.456921	0.111420	0.715945	7109.630371
6603.457811	0.089883	0.715945	7189.625977
6603.458723	0.090033	0.715945	7271.735840
6603.459662	0.090055	0.715945	7356.297363
6603.460586	0.089941	0.715945	7439.403320
6603.461462	0.089938	0.715945	7518.188965
6603.462391	0.089912	0.715945	7601.717285
6603.463315	0.089960	0.715945	7684.839844
6603.464244	0.090062	0.715945	7768.507812
6603.465122	0.090000	0.715945	7847.527832
6604.450747	1.048348	0.758569	441.354675
6604.451665	1.553005	0.758569	1867.013672
6604.452635	1.546289	0.758569	3366.914062
6604.453563	1.505189	0.758569	4763.729492
6604.454434	1.465653	0.758569	6040.313477
6604.455398	1.000657	0.758569	7004.946289
6604.456339	0.112134	0.758569	7110.464355
6604.457269	0.089861	0.758569	7194.035156
6604.458131	0.089993	0.758569	7271.608887
6604.459075	0.090048	0.758569	7356.613770
6604.460021	0.090000	0.758569	7441.753906
6604.460915	0.090000	0.758569	7522.213867
6604.461825	0.090040	0.758569	7604.150391
6604.462763	0.089978	0.758569	7688.549805
6604.463689	0.089879	0.758569	7771.777832
6604.464575	0.090048	0.758569	7851.560059
6605.479411	1.096933	0.707941	514.461792
6605.480296	1.556920	0.707941	1892.336182
6605.481230	1.547450	0.707941	3337.654297
6605.482172	1.505566	0.707941	4755.897949
6605.483090	1.463441	0.707941	6099.336914
6605.483984	1.048967	0.707941	7037.113770
6605.484900	0.121970	0.707941	7148.838379
6605.485864	0.089982	0.707941	7235.580566
6605.486756	0.089938	0.707941	7315.805176
6605.487664	0.089930	0.707941	7397.461914
6605.488624	0.089916	0.707941	7483.781250
6605.489544	0.090004	0.707941	7566.584473
6605.490404	0.089930	0.707941	7643.924805
6605.491334	0.090055	0.707941	7727.675781
6605.492289	0.090088	0.707941	7813.709961
6605.493189	0.090051	0.707941	7894.755859
6606.478310	1.084003	0.763048	486.717224
6606.479186	1.555173	0.763048	1849.049072
6606.480049	1.550072	0.763048	3186.761230
6606.481046	1.507782	0.763048	4690.020020
6606.481989	1.465411	0.763048	6071.902832
6606.482868	1.090547	0.763048	7030.493652
6606.483733	0.134941	0.763048	7147.217773
6606.484698	0.089656	0.763048	7233.735352
6606.485640	0.090051	0.763048	7318.563477
6606.486532	0.090165	0.763048	7398.990234
6606.487443	0.089905	0.763048	7480.893555
6606.488393	0.089941	0.763048	7566.337891
6606.489316	0.089982	0.763048	7649.391113
6606.490178	0.089938	0.763048	7726.917480
6606.491130	0.089927	0.763048	7812.527832
6606.492064	0.089802	0.763048	7896.403320
6607.507429	1.105778	0.713403	503.128815
6607.508317	1.556653	0.713403	1885.436401
6607.509245	1.547413	0.713403	3321.436035
6607.510115	1.507866	0.713403	4633.279297
6607.511090	1.465507	0.713403	6062.148437
6607.511996	1.052974	0.713403	7016.142578
6607.512883	0.125709	0.713403	7127.646484
6607.513823	0.090029	0.713403	7212.273926
6607.514766	0.089945	0.713403	7297.092285
6607.515680	0.089762	0.713403	7379.134766
6607.516558	0.089949	0.713403	7458.109863
6607.517512	0.089857	0.713403	7543.833496
6607.518453	0.090121	0.713403	7628.637207
6607.519339	0.090015	0.713403	7708.390137
6607.520329	0.090026	0.713403	7797.515625
6607.521238	0.089828	0.713403	7879.168945
6608.507348	1.075606	0.753828	473.266418
6608.508234	1.555019	0.753828	1851.013672
6608.509095	1.548874	0.753828	3184.594727
6608.510189	1.503366	0.753828	4829.276367
6608.511094	1.461921	0.753828	6152.315430
6608.512025	0.957967	0.753828	7044.183105
6608.512886	0.113397	0.753828	7141.817871
6608.513906	0.089938	0.753828	7233.554199
6608.514797	0.089923	0.753828	7313.675781
6608.515670	0.090088	0.753828	7392.322266
6608.516629	0.090037	0.753828	7478.667480
6608.517567	0.090044	0.753828	7563.128906
6608.518483	0.089982	0.753828	7645.552246
6608.519350	0.090044	0.753828	7723.620117
6608.520389	0.090018	0.753828	7817.148926
6608.521269	0.089846	0.753828	7896.213379
6609.536037	1.118364	0.699755	593.851379
6609.537058	1.562692	0.699755	2189.359375
6609.537949	1.540583	0.699755	3562.019287
6609.538812	1.501245	0.699755	4857.593750
6609.539852	1.455304	0.699755	6371.109863
6609.540804	0.686569	0.699755	7024.723145
6609.541680	0.095281	0.699755	7108.188965
6609.542635	0.089938	0.699755	7194.079590
6609.543663	0.089971	0.699755	7286.569336
6609.544562	0.089974	0.699755	7367.456055
6609.545428	0.089919	0.699755	7445.326172
6609.546491	0.090007	0.699755	7541.003906
6609.547445	0.089919	0.699755	7626.787109
6609.548319	0.089956	0.699755	7705.408691
6609.549250	0.090062	0.699755	7789.256836
6609.550282	0.090007	0.699755	7882.144531
6610.535441	1.107982	0.748240	567.286865
6610.536498	1.561769	0.748240	2218.076416
6610.537434	1.537687	0.748240	3657.351318
6610.538300	1.497814	0.748240	4954.458008
6610.539374	1.451180	0.748240	6513.025879
6610.540377	0.468625	0.748240	6983.057129
6610.541269	0.091439	0.748240	7064.621094
6610.542242	0.089971	0.748240	7152.162598
6610.543302	0.090026	0.748240	7247.589844
6610.544216	0.089905	0.748240	7329.762695
6610.545081	0.089949	0.748240	7407.568359
6610.546162	0.090033	0.748240	7504.894043
6610.547150	0.089938	0.748240	7593.752441
6610.548031	0.090070	0.748240	7673.103516
6610.549021	0.089982	0.748240	7762.185547
6610.550054	0.089967	0.748240	7855.121582
6611.563967	1.061689	0.694494	452.279663
6611.564942	1.556916	0.694494	1970.273193
6611.565877	1.545341	0.694494	3415.166504
6611.566757	1.506141	0.694494	4740.570801
6611.567650	1.465580	0.694494	6049.333496
6611.568598	0.998811	0.694494	6996.206543
6611.569546	0.110662	0.694494	7101.113770
6611.570436	0.089751	0.694494	7180.992187
6611.571351	0.089681	0.694494	7263.050781
6611.572302	0.090051	0.694494	7348.689453
6611.573230	0.089982	0.694494	7432.192383
6611.574094	0.089916	0.694494	7509.879395
6611.575060	0.089901	0.694494	7596.724121
6611.576015	0.089861	0.694494	7682.541016
6611.576909	0.089908	0.694494	7762.918945
6611.577772	0.090004	0.694494	7840.592285
6612.561894	1.101350	0.743845	496.708923
6612.562821	1.558205	0.743845	1941.165527
6612.563688	1.547384	0.743845	3282.747559
6612.564671	1.505431	0.743845	4762.585937
6612.565622	1.463104	0.743845	6153.998047
6612.566521	1.006168	0.743845	7058.543457
6612.567407	0.118671	0.743845	7163.685547
6612.568359	0.089956	0.743845	7249.323730
6612.569280	0.089982	0.743845	7332.196777
6612.570143	0.089974	0.743845	7409.844727
6612.571113	0.089967	0.743845	7497.112793
6612.572068	0.089982	0.743845	7583.045410
6612.572959	0.090007	0.743845	7663.241699
6612.573871	0.089890	0.743845	7745.221680
6612.574824	0.089952	0.743845	7830.946289
6612.575746	0.090018	0.743845	7913.943359
6613.592002	1.051208	0.695957	452.019653
6613.592867	1.553159	0.695957	1795.502441
6613.593819	1.547999	0.695957	3269.197754
6613.594778	1.506065	0.695957	4713.513672
6613.595704	1.464950	0.695957	6070.057617
6613.596580	1.068351	0.695957	7005.933105
6613.597542	0.122736	0.695957	7124.004883
6613.598478	0.090018	0.695957	7208.262207
6613.599364	0.090081	0.695957	7288.073730
6613.600274	0.090015	0.695957	7369.987305
6613.601226	0.089967	0.695957	7455.635742
6613.602146	0.089967	0.695957	7538.405273
6613.603026	0.090029	0.695957	7617.630859
6613.603976	0.089938	0.695957	7703.071777
6613.604912	0.089985	0.695957	7787.297852
6613.605836	0.089908	0.695957	7870.373047
6614.589372	1.062682	0.746202	450.577118
6614.590353	1.558326	0.746202	1979.295288
6614.591270	1.545450	0.746202	3396.473389
6614.592148	1.506324	0.746202	4719.026367
6614.593094	1.464774	0.746202	6104.702637
6614.594033	0.980922	0.746202	7025.788086
6614.594964	0.107856	0.746202	7126.202637
6614.595854	0.089791	0.746202	7206.116699
6614.596762	0.090110	0.746202	7287.936523
6614.597716	0.089857	0.746202	7373.660156
6614.598641	0.089963	0.746202	7456.876465
6614.599502	0.089597	0.746202	7534.019531
6614.600472	0.090007	0.746202	7621.326660
6614.601419	0.089978	0.746202	7706.535645
6614.602308	0.089963	0.746202	7786.513184
6614.603183	0.089813	0.746202	7865.099609
6615.620058	1.079755	0.679650	471.852753
6615.620945	1.555404	0.679650	1851.496216
6615.621817	1.549995	0.679650	3203.092041
6615.622678	1.510646	0.679650	4503.757812
6615.623703	1.466462	0.679650	6006.881836
6615.624627	1.090346	0.679650	7014.361328
6615.625504	0.133433	0.679650	7131.381836
6615.626456	0.089861	0.679650	7216.929199
6615.627387	0.089850	0.679650	7300.579590
6615.628290	0.089828	0.679650	7381.694336
6615.629178	0.090007	0.679650	7461.620605
6615.630082	0.090004	0.679650	7542.983887
6615.631033	0.089821	0.679650	7628.403320
6615.631959	0.089989	0.679650	7711.732910
6615.632824	0.090099	0.679650	7789.668457
6615.633800	0.089821	0.679650	7877.333496
6616.617948	1.100636	0.738355	498.588104
6616.618835	1.556382	0.738355	1879.098755
6616.619780	1.546659	0.738355	3340.691406
6616.620710	1.505486	0.738355	4740.793457
6616.621631	1.464412	0.738355	6089.516602
6616.622504	1.077217	0.738355	7029.926758
6616.623504	0.115906	0.738355	7145.832520
6616.624429	0.090070	0.738355	7229.146973
6616.625294	0.090044	0.738355	7307.035156
6616.626324	0.089960	0.738355	7399.693848
6616.627206	0.089919	0.738355	7479.002930
6616.628103	0.089945	0.738355	7559.683594
6616.628984	0.090011	0.738355	7638.983398
6616.629918	0.089938	0.738355	7722.985352
6616.630861	0.089791	0.738355	7807.658691
6616.631783	0.090026	0.738355	7890.662109
6617.648064	1.055640	0.678099	449.702484
6617.648932	1.553159	0.678099	1797.844727
6617.649885	1.548193	0.678099	3273.272949
6617.650809	1.508013	0.678099	4666.676758
6617.651702	1.467594	0.678099	5977.238281
6617.652613	1.104412	0.678099	6983.357422
6617.653559	0.128914	0.678099	7105.309570
6617.654505	0.089828	0.678099	7190.286621
6617.655399	0.089960	0.678099	7270.710449
6617.656329	0.089971	0.678099	7354.383301
6617.657286	0.089901	0.678099	7440.418457
6617.658203	0.089927	0.678099	7522.881348
6617.659068	0.090073	0.678099	7600.794922
6617.659980	0.089974	0.678099	7682.851562
6617.660923	0.089916	0.678099	7767.642090
6617.661849	0.089905	0.678099	7850.894043
6618.646040	1.130142	0.728393	566.200928
6618.646926	1.558564	0.728393	1947.088989
6618.647793	1.547882	0.728393	3289.102783
6618.648722	1.506625	0.728393	4688.757324
6618.649724	1.462002	0.728393	6153.683105
6618.650637	0.959703	0.728393	7029.892090
6618.651524	0.111145	0.728393	7128.477539
6618.652513	0.089971	0.728393	7217.458496
6618.653446	0.090044	0.728393	7301.469727
6618.654368	0.090026	0.728393	7384.473145
6618.655232	0.089854	0.728393	7462.106445
6618.656273	0.090106	0.728393	7555.907227
6618.657157	0.089916	0.728393	7635.392578
6618.658071	0.090143	0.728393	7717.783203
6618.658929	0.089923	0.728393	7794.937012
6618.659909	0.089952	0.728393	7883.090332
6619.675711	1.176943	0.663263	657.911316
6619.676637	1.562106	0.663263	2104.421143
6619.677562	1.541777	0.663263	3530.564941
6619.678431	1.501963	0.663263	4835.770508
6619.679464	1.457238	0.663263	6341.096680
6619.680358	0.826681	0.663263	7080.149414
6619.681232	0.101678	0.663263	7169.016602
6619.682223	0.089864	0.663263	7258.072266
6619.683171	0.089967	0.663263	7343.360840
6619.684086	0.089989	0.663263	7425.700684
6619.684943	0.089956	0.663263	7502.792969
6619.685964	0.089982	0.663263	7594.664062
6619.686866	0.089938	0.663263	7675.788086
6619.687777	0.090044	0.663263	7757.818359
6619.688658	0.089996	0.663263	7837.104980
6619.689604	0.089952	0.663263	7922.199707
6620.673469	1.052109	0.731889	448.198578
6620.674341	1.553405	0.731889	1802.767334
6620.675304	1.548248	0.731889	3293.730469
6620.676275	1.505277	0.731889	4755.354492
6620.677194	1.464067	0.731889	6100.832520
6620.678067	1.083409	0.731889	7046.648926
6620.679106	0.112599	0.731889	7163.639160
6620.679984	0.089784	0.731889	7242.469238
6620.680848	0.089960	0.731889	7320.194336
6620.681725	0.089941	0.731889	7399.072754
6620.682760	0.089963	0.731889	7492.185059
6620.683652	0.090095	0.731889	7572.549805
6620.684529	0.089960	0.731889	7651.444336
6620.685510	0.090029	0.731889	7739.763184
6620.686453	0.089927	0.731889	7824.563965
6620.687377	0.090132	0.731889	7907.845703
6621.703620	1.071665	0.661712	465.102631
6621.704494	1.554302	0.661712	1823.562378
6621.705484	1.546516	0.661712	3354.613281
6621.706420	1.504424	0.661712	4762.753906
6621.707350	1.463383	0.661712	6123.699707
6621.708222	1.022322	0.661712	7015.164062
6621.709256	0.104337	0.661712	7123.048828
6621.710141	0.090000	0.661712	7202.698730
6621.711012	0.089945	0.661712	7281.041016
6621.712003	0.089938	0.661712	7370.169434
6621.712915	0.089791	0.661712	7452.059082
6621.713830	0.089971	0.661712	7534.382324
6621.714708	0.089923	0.661712	7613.334961
6621.715722	0.089974	0.661712	7704.568848
6621.716621	0.089916	0.661712	7785.403320
6621.717498	0.090055	0.661712	7864.381348
6622.700998	1.059825	0.729424	451.485626
6622.701987	1.555111	0.729424	1989.490479
6622.702911	1.544249	0.729424	3416.376953
6622.703839	1.503589	0.729424	4811.707520
6622.704703	1.463643	0.729424	6076.294922
6622.705735	0.875193	0.729424	6979.494141
6622.706622	0.103630	0.729424	7071.414062
6622.707497	0.089963	0.729424	7150.131836
6622.708447	0.089956	0.729424	7235.589844
6622.709407	0.089897	0.729424	7321.891602
6622.710321	0.089941	0.729424	7404.098145
6622.711198	0.089916	0.729424	7482.954102
6622.712227	0.089883	0.729424	7575.443359
6622.713126	0.089916	0.729424	7656.277832
6622.713997	0.089857	0.729424	7734.543457
6622.714874	0.089996	0.729424	7813.470215
6623.731130	1.055782	0.659803	446.595978
6623.732177	1.560326	0.659803	2080.257324
6623.733066	1.543938	0.659803	3452.818359
6623.733989	1.503193	0.659803	4840.265625
6623.734855	1.463994	0.659803	6108.084473
6623.735841	0.918651	0.659803	7013.874512
6623.736753	0.104601	0.659803	7109.270508
6623.737636	0.089883	0.659803	7188.637207
6623.738612	0.089971	0.659803	7276.448730
6623.739534	0.090000	0.659803	7359.428711
6623.740455	0.090026	0.659803	7442.342285
6623.741321	0.089996	0.659803	7520.279297
6623.742353	0.089960	0.659803	7613.117676
6623.743246	0.089854	0.659803	7693.356934
6623.744164	0.090004	0.659803	7775.980469
6623.745027	0.089780	0.659803	7853.460937
6624.729561	1.089390	0.705955	481.510254
6624.730430	1.554825	0.705955	1832.653564
6624.731425	1.545117	0.705955	3370.045410
6624.732424	1.500721	0.705955	4869.266113
6624.733322	1.461017	0.705955	6181.259277
6624.734193	0.960157	0.705955	7017.556641
6624.735291	0.098328	0.705955	7125.520508
6624.736192	0.089886	0.705955	7206.508301
6624.737108	0.090022	0.705955	7288.968262
6624.737975	0.089967	0.705955	7366.969727
6624.739031	0.089886	0.705955	7461.889648
6624.739923	0.089949	0.705955	7542.124023
6624.740803	0.089993	0.705955	7621.317383
6624.741786	0.089927	0.705955	7709.715332
6624.742713	0.090022	0.705955	7793.165527
6624.743630	0.089985	0.705955	7875.682129
6625.758725	1.118936	0.645832	540.445862
6625.759616	1.557935	0.645832	1928.565674
6625.760482	1.548190	0.645832	3269.297852
6625.761438	1.506643	0.645832	4709.648437
6625.762416	1.462577	0.645832	6140.048828
6625.763331	0.982002	0.645832	7038.580566
6625.764210	0.114045	0.645832	7138.826660
6625.765230	0.089890	0.645832	7230.514648
6625.766135	0.090055	0.645832	7312.014160
6625.767015	0.090000	0.645832	7391.214355
6625.767882	0.089985	0.645832	7469.231445
6625.768922	0.089890	0.645832	7562.717285
6625.769806	0.089875	0.645832	7642.166992
6625.770676	0.089901	0.645832	7720.380859
6625.771682	0.090070	0.645832	7810.990723
6625.772588	0.089956	0.645832	7892.490723
6626.757043	1.046946	0.701790	437.623352
6626.758099	1.559180	0.701790	2084.117187
6626.759049	1.540931	0.701790	3548.001953
6626.759926	1.501575	0.701790	4864.882812
6626.760869	1.459753	0.701790	6241.430176
6626.761920	0.705106	0.701790	6982.496582
6626.762807	0.095424	0.701790	7067.137207
6626.763670	0.089806	0.701790	7144.639648
6626.764703	0.089945	0.701790	7237.552734
6626.765664	0.089780	0.701790	7323.831543
6626.766535	0.089886	0.701790	7402.122559
6626.767425	0.089872	0.701790	7482.108398
6626.768519	0.089974	0.701790	7580.540527
6626.769398	0.089956	0.701790	7659.611816
6626.770264	0.089758	0.701790	7737.342285
6626.771318	0.089941	0.701790	7832.140625
6627.786693	1.058192	0.635238	455.022614
6627.787679	1.554833	0.635238	1988.087769
6627.788694	1.541045	0.635238	3552.248535
6627.789578	1.501154	0.635238	4879.268555
6627.790447	1.462390	0.635238	6150.085449
6627.791436	0.855469	0.635238	6996.144043
6627.792367	0.099272	0.635238	7088.566895
6627.793281	0.089773	0.635238	7170.619141
6627.794167	0.089949	0.635238	7250.313477
6627.795198	0.090007	0.635238	7343.110840
6627.796094	0.089993	0.635238	7423.744141
6627.796975	0.090015	0.635238	7503.046875
6627.797913	0.090033	0.635238	7587.497559
6627.798894	0.089857	0.635238	7675.647461
6627.799817	0.090018	0.635238	7758.734375
6627.800683	0.089846	0.635238	7836.541016
6628.786117	1.067230	0.694905	462.110687
6628.786985	1.553218	0.694905	1810.303711
6628.788083	1.541971	0.694905	3503.388184
6628.789012	1.500410	0.694905	4897.269531
6628.789895	1.461050	0.694905	6187.376465
6628.790873	0.845797	0.694905	7014.565918
6628.791887	0.094644	0.694905	7110.534668
6628.792770	0.090011	0.694905	7190.014160
6628.793646	0.089875	0.694905	7268.745117
6628.794633	0.089996	0.694905	7357.571289
6628.795583	0.089978	0.694905	7443.050293
6628.796460	0.090040	0.694905	7522.015625
6628.797397	0.089978	0.694905	7606.325195
6628.798444	0.089875	0.694905	7700.424805
6628.799318	0.089890	0.694905	7778.988770
6628.800194	0.089960	0.694905	7857.793457
6629.813185	1.057705	0.632821	449.524689
6629.814182	1.555356	0.632821	2000.214966
6629.815183	1.540671	0.632821	3542.427002
6629.816076	1.500916	0.632821	4882.744629
6629.816944	1.460914	0.632821	6150.818359
6629.818036	0.732605	0.632821	6950.823242
6629.818961	0.094493	0.632821	7038.229492
6629.819838	0.089960	0.632821	7117.124023
6629.820809	0.090022	0.632821	7204.535156
6629.821804	0.089938	0.632821	7294.023437
6629.822690	0.089901	0.632821	7373.675781
6629.823559	0.090055	0.632821	7451.933594
6629.824547	0.089923	0.632821	7540.777832
6629.825478	0.089861	0.632821	7624.438477
6629.826376	0.089960	0.632821	7705.222168
6629.827252	0.089945	0.632821	7784.014160
6630.812606	1.052816	0.686140	447.446869
6630.813607	1.554613	0.686140	2003.614502
6630.814662	1.538979	0.686140	3627.237793
6630.815565	1.497964	0.686140	4979.899414
6630.816427	1.458076	0.686140	6236.760742
6630.817545	0.624221	0.686140	6934.640137
6630.818503	0.091523	0.686140	7022.319824
6630.819382	0.090004	0.686140	7101.433105
6630.820238	0.089930	0.686140	7178.413574
6630.821340	0.090073	0.686140	7277.674316
6630.822220	0.089773	0.686140	7356.674316
6630.823099	0.089912	0.686140	7435.707031
6630.824071	0.089938	0.686140	7523.126465
6630.825070	0.089872	0.686140	7612.908203
6630.825963	0.090029	0.686140	7693.304199
6630.826830	0.089901	0.686140	7771.248535
6631.841737	1.074005	0.625336	467.192230
6631.842618	1.554782	0.625336	1836.954834
6631.843483	1.548904	0.625336	3176.756592
6631.844601	1.502662	0.625336	4856.732910
6631.845498	1.462112	0.625336	6168.247070
6631.846365	1.028654	0.625336	7060.089844
6631.847366	0.113881	0.625336	7174.084473
6631.848355	0.089971	0.625336	7263.065430
6631.849227	0.090004	0.625336	7341.548828
6631.850093	0.089894	0.625336	7419.396973
6631.851182	0.089967	0.625336	7517.371094
6631.852089	0.089879	0.625336	7598.891602
6631.852970	0.089949	0.625336	7678.136230
6631.853948	0.089982	0.625336	7766.138184
6631.854949	0.089817	0.625336	7856.044922
6631.855835	0.089938	0.625336	7935.729980
6632.840271	1.190409	0.679114	671.390625
6632.841321	1.562963	0.679114	2312.501465
6632.842208	1.537430	0.679114	3676.202148
6632.843165	1.494910	0.679114	5106.830566
6632.844223	1.448185	0.679114	6639.010254
6632.845169	0.453816	0.679114	7068.320312
6632.846027	0.091436	0.679114	7146.771973
6632.847060	0.089949	0.679114	7239.688965
6632.848086	0.090029	0.679114	7332.059082
6632.848963	0.090007	0.679114	7410.995605
6632.849910	0.089934	0.679114	7496.163086
6632.850965	0.089952	0.679114	7591.062988
6632.851882	0.089912	0.679114	7673.512207
6632.852764	0.089835	0.679114	7752.747070
6632.853731	0.089985	0.679114	7839.762695
6633.869843	1.107744	0.601867	567.164978
6633.870916	1.562179	0.601867	2243.382812
6633.871836	1.537533	0.601867	3657.913086
6633.872714	1.496785	0.601867	4972.089844
6633.873801	1.449961	0.601867	6548.197266
6633.874800	0.427863	0.601867	6975.631836
6633.875694	0.090835	0.601867	7056.838379
6633.876680	0.089883	0.601867	7145.462891
6633.877722	0.089967	0.601867	7239.208496
6633.878618	0.089916	0.601867	7319.772949
6633.879479	0.089934	0.601867	7397.206055
6633.880610	0.090051	0.601867	7499.054199
6633.881573	0.089872	0.601867	7585.600586
6633.882448	0.089952	0.601867	7664.309082
6633.883311	0.089897	0.601867	7741.890625
6633.884420	0.089912	0.601867	7841.603027
6634.868665	1.047623	0.668794	441.049408
6634.869603	1.552332	0.668794	1897.136475
6634.870679	1.540323	0.668794	3554.524414
6634.871620	1.498392	0.668794	4964.511719
6634.872494	1.459028	0.668794	6239.702148
6634.873556	0.684650	0.668794	6966.799805
6634.874570	0.091794	0.668794	7059.879395
6634.875462	0.089956	0.668794	7140.120117
6634.876418	0.089956	0.668794	7226.118164
6634.877462	0.090022	0.668794	7320.101074
6634.878390	0.089897	0.668794	7403.525879
6634.879257	0.089949	0.668794	7481.511230
6634.880317	0.090062	0.668794	7576.977051
6634.881305	0.089930	0.668794	7665.828125
6634.882185	0.089908	0.668794	7744.947754
6634.883163	0.090037	0.668794	7833.003418
6635.896355	1.127728	0.618955	593.185059
6635.897416	1.562380	0.618955	2250.870605
6635.898336	1.537456	0.618955	3665.330078
6635.899204	1.497111	0.618955	4964.822266
6635.900299	1.450166	0.618955	6552.753906
6635.901298	0.437600	0.618955	6989.916504
6635.902181	0.091033	0.618955	7070.298340
6635.903165	0.090040	0.618955	7158.897949
6635.904220	0.089982	0.618955	7253.828613
6635.905101	0.089978	0.618955	7333.099121
6635.905961	0.090128	0.618955	7410.609375
6635.907052	0.089960	0.618955	7508.755371
6635.908015	0.089883	0.618955	7595.312500
6635.908873	0.089905	0.618955	7672.450684
6635.909944	0.090011	0.618955	7768.852539
6635.910983	0.089894	0.618955	7862.251953
6636.897722	1.049253	0.656366	440.686249
6636.898649	1.553390	0.656366	1880.678711
6636.899575	1.546904	0.656366	3313.112061
6636.900498	1.506519	0.656366	4703.628906
6636.901388	1.466492	0.656366	6008.806641
6636.902307	1.043097	0.656366	6967.412598
6636.903381	0.106747	0.656366	7082.058594
6636.904376	0.089828	0.656366	7171.437500
6636.905272	0.089927	0.656366	7252.011719
6636.906237	0.089967	0.656366	7338.830078
6636.907288	0.089923	0.656366	7433.339355
6636.908197	0.090051	0.656366	7515.195801
6636.909059	0.090004	0.656366	7592.778809
6636.910125	0.090055	0.656366	7688.777344
6636.911112	0.090066	0.656366	7777.672363
6636.911988	0.089960	0.656366	7856.477051
6637.923302	1.104174	0.604719	512.336548
6637.924192	1.557100	0.604719	1898.155151
6637.925059	1.548739	0.604719	3240.912109
6637.926034	1.506855	0.604719	4710.096191
6637.926991	1.464412	0.604719	6111.538086
6637.927879	1.070867	0.604719	7062.467773
6637.928794	0.130184	0.604719	7181.586426
6637.929754	0.090018	0.604719	7268.003906
6637.930690	0.090048	0.604719	7352.288574
6637.931564	0.090029	0.604719	7430.974121
6637.932539	0.089828	0.604719	7518.556152
6637.933493	0.089978	0.604719	7604.395020
6637.934416	0.089916	0.604719	7687.387207
6637.935280	0.089978	0.604719	7765.128418
6637.936369	0.090095	0.604719	7863.242187
6637.937408	0.089934	0.604719	7956.683594
6638.924730	1.047894	0.645152	442.211426
6638.925668	1.556206	0.645152	1901.932739
6638.926625	1.544813	0.645152	3380.319092
6638.927542	1.504702	0.645152	4760.130859
6638.928419	1.464353	0.645152	6044.368652
6638.929500	0.840044	0.645152	6952.456055
6638.930544	0.095032	0.645152	7051.668945
6638.931445	0.090029	0.645152	7132.785156
6638.932305	0.089923	0.645152	7210.119141
6638.933395	0.090033	0.645152	7308.254883
6638.934366	0.090022	0.645152	7395.666016
6638.935232	0.090059	0.645152	7473.656738
6638.936309	0.089985	0.645152	7570.570801
6638.937343	0.089857	0.645152	7663.482910
6638.938230	0.089949	0.645152	7743.267578
6638.939147	0.089960	0.645152	7825.760742
6639.951803	1.053955	0.580255	446.876953
6639.952820	1.557045	0.580255	2030.391357
6639.953884	1.538599	0.580255	3667.460449
6639.954764	1.497934	0.580255	4985.642578
6639.955652	1.456904	0.580255	6279.373535
6639.956750	0.600974	0.580255	6939.243164
6639.957701	0.091641	0.580255	7026.393555
6639.958574	0.089905	0.580255	7104.880371
6639.959588	0.089978	0.580255	7196.118164
6639.960621	0.090007	0.580255	7289.095703
6639.961510	0.089971	0.580255	7369.079590
6639.962436	0.090073	0.580255	7452.487305
6639.963502	0.090015	0.580255	7548.442871
6639.964445	0.089930	0.580255	7633.247070
6639.965311	0.089993	0.580255	7711.180664
6639.966368	0.089993	0.580255	7806.302734
6640.953313	1.079268	0.628329	499.700897
6640.954207	1.557327	0.628329	1891.950928
6640.955122	1.547472	0.628329	3307.887695
6640.956084	1.505801	0.628329	4756.468262
6640.957010	1.463796	0.628329	6111.943848
6640.957881	1.074697	0.628329	7048.005371
6640.958868	0.111313	0.628329	7157.871582
6640.959804	0.089941	0.628329	7242.056641
6640.960713	0.090070	0.628329	7323.929687
6640.961599	0.089897	0.628329	7403.578613
6640.962557	0.089901	0.628329	7489.704102
6640.963487	0.089916	0.628329	7573.325684
6640.964375	0.089949	0.628329	7653.200195
6640.965293	0.089989	0.628329	7735.810059
6640.966381	0.090037	0.628329	7833.770020
6640.967370	0.090110	0.628329	7922.888672
6641.978891	1.090334	0.586503	550.618896
6641.979947	1.562069	0.586503	2200.163818
6641.980887	1.538126	0.586503	3646.002441
6641.981749	1.498652	0.586503	4937.840820
6641.982801	1.452448	0.586503	6465.815430
6641.983826	0.509593	0.586503	6988.148926
6641.984695	0.091637	0.586503	7067.781250
6641.985648	0.089985	0.586503	7153.537109
6641.986702	0.089894	0.586503	7248.285156
6641.987628	0.090044	0.586503	7331.666016
6641.988495	0.090103	0.586503	7409.785156
6641.989550	0.090018	0.586503	7504.754395
6641.990553	0.089971	0.586503	7594.995117
6641.991445	0.089850	0.586503	7675.141113
6641.992416	0.089978	0.586503	7762.509766
6641.993469	0.089949	0.586503	7857.225586
6642.980799	1.050421	0.628732	445.378540
6642.981737	1.553562	0.628732	1902.619751
6642.982695	1.545553	0.628732	3383.259521
6642.983603	1.504838	0.628732	4749.652344
6642.984483	1.465250	0.628732	6039.072266
6642.985432	1.028906	0.628732	7015.504395
6642.986381	0.112994	0.628732	7122.735840
6642.987289	0.089923	0.628732	7204.386230
6642.988160	0.089894	0.628732	7282.683594
6642.989125	0.089934	0.628732	7369.470215
6642.990074	0.090205	0.628732	7455.074707
6642.990962	0.089949	0.628732	7534.949219
6642.991957	0.090004	0.628732	7624.502930
6642.992997	0.090004	0.628732	7718.106934
6642.993966	0.089956	0.628732	7805.274414
6642.994825	0.089985	0.628732	7882.571777
6644.005916	1.140326	0.576489	579.285583
6644.006947	1.562717	0.576489	2190.447021
6644.007829	1.541049	0.576489	3549.651855
6644.008806	1.498048	0.576489	5013.245117
6644.009868	1.451071	0.576489	6554.282227
6644.010793	0.559263	0.576489	7071.600098
6644.011650	0.092831	0.576489	7151.156250
6644.012713	0.090037	0.576489	7246.865234
6644.013707	0.090011	0.576489	7336.335937
6644.014592	0.089993	0.576489	7415.979492
6644.015561	0.089985	0.576489	7503.175293
6644.016613	0.089967	0.576489	7597.820801
6644.017525	0.089978	0.576489	7679.880859
6644.018392	0.089971	0.576489	7757.885254
6644.019472	0.090070	0.576489	7855.160645
6644.020461	0.090022	0.576489	7944.192383
6645.009382	1.079491	0.601174	503.042755
6645.010269	1.557396	0.601174	1884.453125
6645.011191	1.547794	0.601174	3311.519531
6645.012119	1.505819	0.601174	4708.919922
6645.013064	1.463599	0.601174	6092.020508
6645.013962	1.051117	0.601174	7035.923340
6645.014899	0.117990	0.601174	7146.479492
6645.015839	0.089956	0.601174	7231.038086
6645.016765	0.090037	0.601174	7314.412109
6645.017627	0.089941	0.601174	7391.941406
6645.018576	0.089978	0.601174	7477.330566
6645.019488	0.089916	0.601174	7559.333984
6645.020382	0.090040	0.601174	7639.830078
6645.021382	0.089850	0.601174	7729.679687
6645.022344	0.089963	0.601174	7816.224609
6645.023270	0.089901	0.601174	7899.473145
6646.034387	1.101573	0.549970	487.997040
6646.035351	1.559033	0.549970	1990.905029
6646.036281	1.544465	0.549970	3427.257812
6646.037159	1.504805	0.549970	4748.476562
6646.038132	1.462148	0.549970	6171.146973
6646.039088	0.911821	0.549970	7042.848145
6646.039978	0.105223	0.549970	7136.497070
6646.040893	0.089886	0.549970	7218.743164
6646.041809	0.089941	0.549970	7301.129395
6646.042754	0.090051	0.549970	7386.228027
6646.043630	0.089883	0.549970	7464.965332
6646.044530	0.090099	0.549970	7546.054199
6646.045484	0.089930	0.549970	7631.847656
6646.046415	0.089941	0.549970	7715.583008
6646.047292	0.089854	0.549970	7794.384766
6646.048253	0.089916	0.549970	7880.793945
6647.035846	1.062653	0.616200	460.128571
6647.036713	1.553437	0.616200	1806.958862
6647.037693	1.547095	0.616200	3323.111816
6647.038631	1.505845	0.616200	4735.594238
6647.039515	1.465803	0.616200	6031.364258
6647.040451	1.065154	0.616200	7028.348145
6647.041392	0.121230	0.616200	7142.425781
6647.042315	0.089802	0.616200	7225.313477
6647.043191	0.090077	0.616200	7304.220703
6647.044121	0.090040	0.616200	7387.958008
6647.045075	0.089868	0.616200	7473.692383
6647.046003	0.090018	0.616200	7557.229492
6647.046870	0.089945	0.616200	7635.211914
6647.047827	0.090015	0.616200	7721.355957
6647.048780	0.089938	0.616200	7807.066406
6647.049669	0.090033	0.616200	7887.105469
6648.061887	1.050634	0.558345	449.671173
6648.062753	1.553284	0.558345	1794.814819
6648.063694	1.548201	0.558345	3251.671631
6648.064656	1.506793	0.558345	4701.206543
6648.065576	1.465598	0.558345	6049.556641
6648.066438	1.105305	0.558345	7002.329590
6648.067387	0.128569	0.558345	7124.341797
6648.068346	0.089828	0.558345	7210.486816
6648.069235	0.089993	0.558345	7290.490234
6648.070136	0.089956	0.558345	7371.540527
6648.071076	0.089930	0.558345	7456.075195
6648.072030	0.090216	0.558345	7542.141113
6648.072923	0.089890	0.558345	7622.413086
6648.073844	0.090128	0.558345	7705.420898
6648.074806	0.089908	0.558345	7791.912598
6648.075732	0.089908	0.558345	7875.167969
6649.065424	1.075756	0.585234	470.105194
6649.066291	1.554038	0.585234	1817.456177
6649.067266	1.546820	0.585234	3325.605713
6649.068172	1.506475	0.585234	4690.471680
6649.069061	1.466627	0.585234	5994.303223
6649.069978	1.099182	0.585234	7002.253418
6649.070942	0.121882	0.585234	7119.748047
6649.071860	0.089960	0.585234	7202.331055
6649.072734	0.089974	0.585234	7280.968750
6649.073695	0.089993	0.585234	7367.451660
6649.074627	0.090048	0.585234	7451.375977
6649.075543	0.090157	0.585234	7533.960449
6649.076402	0.089963	0.585234	7611.238770
6649.077366	0.089956	0.585234	7697.956543
6649.078296	0.090048	0.585234	7781.700684
6649.079186	0.089938	0.585234	7861.745117
6650.088396	1.060906	0.542941	464.676758
6650.089257	1.553544	0.542941	1802.277832
6650.090204	1.547003	0.542941	3267.289795
6650.091171	1.504940	0.542941	4722.566895
6650.092102	1.463818	0.542941	6085.381836
6650.092988	1.041786	0.542941	7008.404297
6650.093955	0.114646	0.542941	7119.267090
6650.094879	0.089857	0.542941	7202.294922
6650.095740	0.089978	0.542941	7279.766113
6650.096697	0.090081	0.542941	7365.973145
6650.097634	0.089963	0.542941	7450.269043
6650.098564	0.090062	0.542941	7534.026855
6650.099443	0.089861	0.542941	7613.014648
6650.100371	0.089963	0.542941	7696.500488
6650.101291	0.090201	0.542941	7779.485840
6650.102181	0.089901	0.542941	7859.498047
6651.091901	1.053010	0.581407	446.476349
6651.092869	1.554144	0.581407	1950.887939
6651.093773	1.546069	0.581407	3348.534668
6651.094689	1.505896	0.581407	4727.935547
6651.095568	1.466133	0.581407	6016.666504
6651.096531	1.026731	0.581407	7005.408203
6651.097469	0.113416	0.581407	7111.791992
6651.098394	0.089810	0.581407	7194.865723
6651.099253	0.089996	0.581407	7272.172363
6651.100228	0.089846	0.581407	7359.772461
6651.101175	0.089989	0.581407	7444.992187
6651.102042	0.089996	0.581407	7523.019043
6651.102951	0.089890	0.581407	7604.729004
6651.103895	0.089963	0.581407	7689.654297
6651.104816	0.089919	0.581407	7772.470215
6651.105691	0.089857	0.581407	7851.095215
6652.116925	1.049861	0.533656	447.240723
6652.117795	1.553240	0.533656	1798.559204
6652.118658	1.551551	0.533656	3137.548096
6652.119649	1.508287	0.533656	4632.260742
6652.120577	1.466499	0.533656	5993.171875
6652.121511	1.096567	0.533656	7017.365723
6652.122371	0.136545	0.533656	7134.794922
6652.123346	0.089952	0.533656	7222.498535
6652.124294	0.089956	0.533656	7307.776855
6652.125167	0.090081	0.533656	7386.416992
6652.126078	0.090022	0.533656	7468.427246
6652.126995	0.090033	0.533656	7550.987305
6652.127946	0.089718	0.533656	7636.309082
6652.128843	0.089989	0.533656	7717.029297
6652.129759	0.090044	0.533656	7799.509766
6652.130718	0.089795	0.533656	7885.623047
6653.120457	1.072050	0.576074	465.269531
6653.121327	1.553906	0.576074	1817.167969
6653.122329	1.546102	0.576074	3366.362305
6653.123242	1.505200	0.576074	4740.610352
6653.124165	1.464342	0.576074	6092.198242
6653.125031	1.055588	0.576074	7006.337891
6653.126070	0.106805	0.576074	7117.308594
6653.126961	0.089806	0.576074	7197.325684
6653.127838	0.090026	0.576074	7276.278320
6653.128805	0.090004	0.576074	7363.312012
6653.129759	0.089927	0.576074	7449.102051
6653.130684	0.089912	0.576074	7532.270508
6653.131552	0.089971	0.576074	7610.365234
6653.132575	0.089875	0.576074	7702.307617
6653.133466	0.089846	0.576074	7782.360352
6653.134338	0.089971	0.576074	7860.814941
6654.144445	1.059126	0.516108	443.773804
6654.145549	1.561392	0.516108	2167.550293
6654.146472	1.539983	0.516108	3588.954590
6654.147353	1.500571	0.516108	4910.958008
6654.148340	1.457432	0.516108	6349.443359
6654.149353	0.646296	0.516108	7004.141602
6654.150231	0.094559	0.516108	7087.164551
6654.151100	0.089894	0.516108	7165.282227
6654.152077	0.090044	0.516108	7253.255371
6654.153012	0.089846	0.516108	7337.261719
6654.153925	0.089901	0.516108	7419.341309
6654.154802	0.089978	0.516108	7498.251953
6654.155825	0.089886	0.516108	7590.206055
6654.156721	0.089919	0.516108	7670.773926
6654.157598	0.090051	0.516108	7749.749023
6654.158521	0.090022	0.516108	7832.839355
6655.146434	1.063224	0.578294	458.249481
6655.147300	1.553112	0.578294	1803.244141
6655.148415	1.541268	0.578294	3521.758301
6655.149389	1.497484	0.578294	4980.307617
6655.150272	1.458552	0.578294	6268.208984
6655.151307	0.695497	0.578294	6988.048340
6655.152344	0.092340	0.578294	7083.805176
6655.153229	0.090004	0.578294	7163.458496
6655.154117	0.089927	0.578294	7243.313477
6655.155207	0.089956	0.578294	7341.365723
6655.156161	0.089821	0.578294	7427.054687
6655.157032	0.090103	0.578294	7505.534180
6655.157920	0.090121	0.578294	7585.561523
6655.159006	0.089901	0.578294	7683.194336
6655.159875	0.089963	0.578294	7761.372559
6655.160737	0.090051	0.578294	7838.996582
6656.172048	1.126417	0.519138	569.967163
6656.172964	1.560110	0.519138	1999.027832
6656.173828	1.545337	0.519138	3334.198730
6656.174924	1.498532	0.519138	4976.589355
6656.175912	1.454344	0.519138	6413.481445
6656.176795	0.751846	0.519138	7077.361328
6656.177790	0.096086	0.519138	7172.967285
6656.178840	0.089949	0.519138	7267.413574
6656.179735	0.090000	0.519138	7347.963379
6656.180604	0.089971	0.519138	7426.147949
6656.181720	0.089938	0.519138	7526.518555
6656.182680	0.089890	0.519138	7612.812988
6656.183550	0.090026	0.519138	7691.135254
6656.184555	0.090070	0.519138	7781.655273
6656.185594	0.090011	0.519138	7875.176758
6656.186478	0.089993	0.519138	7954.730469
6657.174479	1.067325	0.574378	463.219269
6657.175359	1.554749	0.574378	1831.397949
6657.176229	1.550134	0.574378	3180.014648
6657.177207	1.508507	0.574378	4655.334473
6657.178138	1.465906	0.574378	6020.092773
6657.179049	1.100497	0.574378	7022.645508
6657.179908	0.137549	0.574378	7140.799805
6657.180882	0.089883	0.574378	7228.345703
6657.181838	0.090066	0.574378	7314.448730
6657.182709	0.089927	0.574378	7392.774902
6657.183623	0.090040	0.574378	7475.071777
6657.184579	0.089923	0.574378	7561.038086
6657.185501	0.089930	0.574378	7643.954102
6657.186381	0.090007	0.574378	7723.160645
6657.187344	0.089967	0.574378	7809.798828
6657.188255	0.090018	0.574378	7891.805664
6658.198462	1.052260	0.526799	448.262573
6658.199326	1.553126	0.526799	1790.163574
6658.200292	1.547834	0.526799	3285.371582
6658.201216	1.506683	0.526799	4677.546875
6658.202145	1.465543	0.526799	6039.036621
6658.203009	1.106375	0.526799	6994.944336
6658.203984	0.128459	0.526799	7120.192383
6658.204937	0.089890	0.526799	7205.857910
6658.205810	0.090099	0.526799	7284.514160
6658.206719	0.090084	0.526799	7366.400879
6658.207656	0.089949	0.526799	7450.682617
6658.208589	0.090004	0.526799	7534.656250
6658.209485	0.089967	0.526799	7615.266602
6658.210388	0.089938	0.526799	7696.480469
6658.211336	0.089949	0.526799	7781.751953
6658.212262	0.089905	0.526799	7865.003906
6659.201487	1.072332	0.565665	468.608887
6659.202362	1.554642	0.565665	1828.920898
6659.203299	1.547893	0.565665	3279.296631
6659.204233	1.506013	0.565665	4685.913086
6659.205170	1.464789	0.565665	6058.419922
6659.206037	1.064495	0.565665	6981.336914
6659.207018	0.120209	0.565665	7099.261719
6659.207958	0.089967	0.565665	7183.830566
6659.208853	0.089971	0.565665	7264.354492
6659.209782	0.089967	0.565665	7347.934082
6659.210735	0.090004	0.565665	7433.707520
6659.211636	0.089908	0.565665	7514.714844
6659.212511	0.089905	0.565665	7593.381348
6659.213420	0.090212	0.565665	7675.384277
6659.214375	0.089828	0.565665	7761.169922
6659.215295	0.089963	0.565665	7843.936035
6660.226533	1.117485	0.514642	516.278198
6660.227466	1.559117	0.514642	1970.934814
6660.228392	1.545194	0.514642	3401.784668
6660.229265	1.506017	0.514642	4716.537109
6660.230239	1.463101	0.514642	6141.597168
6660.231202	0.930714	0.514642	7037.875000
6660.232094	0.107626	0.514642	7133.876953
6660.233006	0.089850	0.514642	7215.819824
6660.233964	0.089996	0.514642	7302.036133
6660.234890	0.089707	0.514642	7385.104980
6660.235754	0.090044	0.514642	7462.902832
6660.236709	0.089930	0.514642	7548.786133
6660.237657	0.089788	0.514642	7633.904785
6660.238580	0.089941	0.514642	7716.920898
6660.239458	0.089916	0.514642	7795.867187
6660.240428	0.089908	0.514642	7883.078613
6661.230551	1.074218	0.528991	479.101044
6661.231422	1.555269	0.528991	1833.739990
6661.232340	1.548457	0.528991	3255.223633
6661.233301	1.506735	0.528991	4703.195312
6661.234233	1.464554	0.528991	6068.160156
6661.235121	1.086592	0.528991	7033.053711
6661.236045	0.118835	0.528991	7142.857422
6661.236986	0.090004	0.528991	7227.550781
6661.237918	0.089978	0.528991	7311.410156
6661.238780	0.090033	0.528991	7389.018555
6661.239745	0.089897	0.528991	7475.769531
6661.240690	0.089883	0.528991	7560.708984
6661.241563	0.090048	0.528991	7639.320312
6661.242451	0.089923	0.528991	7719.171875
6661.243405	0.089875	0.528991	7804.913086
6661.244326	0.089927	0.528991	7887.735840
6662.253530	1.077770	0.506448	482.840851
6662.254398	1.555426	0.506448	1832.950562
6662.255317	1.548479	0.506448	3256.002930
6662.256283	1.506460	0.506448	4711.243164
6662.257216	1.464408	0.506448	6077.536133
6662.258103	1.079538	0.506448	7035.086914
6662.259021	0.118828	0.506448	7144.170898
6662.259966	0.089839	0.506448	7229.068848
6662.260885	0.090066	0.506448	7311.839355
6662.261749	0.090044	0.506448	7389.637207
6662.262723	0.089945	0.506448	7477.243652
6662.263667	0.090033	0.506448	7562.234863
6662.264534	0.089960	0.506448	7640.229980
6662.265423	0.089897	0.506448	7720.148926
6662.266368	0.089839	0.506448	7805.046875
6662.267288	0.090000	0.506448	7887.846680
6663.258113	1.083556	0.533345	538.527222
6663.259018	1.559601	0.533345	1949.965942
6663.259938	1.544788	0.533345	3371.170410
6663.260833	1.505468	0.533345	4718.563965
6663.261795	1.462584	0.533345	6125.569824
6663.262739	0.939606	0.533345	7012.557617
6663.263659	0.106992	0.533345	7110.990234
6663.264520	0.089923	0.533345	7188.414062
6663.265491	0.089886	0.533345	7275.693848
6663.266426	0.090004	0.533345	7359.847168
6663.267296	0.090022	0.533345	7438.166504
6663.268202	0.089978	0.533345	7519.686523
6663.269126	0.089843	0.533345	7602.701172
6663.270073	0.090077	0.533345	7688.003906
6663.270965	0.089854	0.533345	7768.153320
6663.271870	0.089817	0.533345	7849.437500
6664.280503	1.049301	0.507749	442.804840
6664.281493	1.554565	0.507749	1981.824585
6664.282372	1.546168	0.507749	3340.906494
6664.283286	1.506123	0.507749	4717.502930
6664.284167	1.466455	0.507749	6009.449707
6664.285105	1.050483	0.507749	6994.803223
6664.286054	0.116968	0.507749	7105.805664
6664.286946	0.089930	0.507749	7186.023437
6664.287925	0.090004	0.507749	7274.137207
6664.288845	0.090004	0.507749	7356.940430
6664.289754	0.090103	0.507749	7438.843750
6664.290632	0.090044	0.507749	7517.902344
6664.291586	0.090084	0.507749	7603.842773
6664.292525	0.090070	0.507749	7688.417969
6664.293429	0.089963	0.507749	7769.744629
6664.294305	0.090037	0.507749	7848.616699
6665.284661	1.161636	0.520793	617.990234
6665.285548	1.560066	0.520793	2001.768799
6665.286413	1.546249	0.520793	3339.273926
6665.287463	1.499949	0.520793	4914.220215
6665.288426	1.457428	0.520793	6317.723633
6665.289309	0.861936	0.520793	7078.812988
6665.290186	0.104022	0.520793	7170.040527
6665.291255	0.090044	0.520793	7266.297363
6665.292153	0.089934	0.520793	7347.058105
6665.293033	0.090077	0.520793	7426.325684
6665.294018	0.089919	0.520793	7514.896484
6665.295011	0.089835	0.520793	7604.103027
6665.295901	0.089934	0.520793	7684.144531
6665.296776	0.089908	0.520793	7762.814453
6665.297774	0.089832	0.520793	7852.466309
6665.298700	0.089875	0.520793	7935.690918
6666.309047	1.050454	0.476023	442.241150
6666.309909	1.552137	0.476023	1780.183594
6666.311027	1.541887	0.476023	3504.013428
6666.311951	1.500275	0.476023	4890.267090
6666.312836	1.460984	0.476023	6183.237793
6666.313832	0.824843	0.476023	7004.780762
6666.314839	0.093995	0.476023	7099.434082
6666.315723	0.089685	0.476023	7178.715820
6666.316584	0.089934	0.476023	7256.148926
6666.317662	0.089747	0.476023	7352.896484
6666.318570	0.089930	0.476023	7434.553223
6666.319438	0.089806	0.476023	7512.504883
6666.320414	0.089960	0.476023	7600.305664
6666.321418	0.089788	0.476023	7690.452637
6666.322293	0.089974	0.476023	7769.180176
6666.323158	0.089945	0.476023	7846.982422
6667.311560	1.054131	0.540782	460.655212
6667.312428	1.553709	0.540782	1809.274170
6667.313464	1.544257	0.540782	3409.124023
6667.314504	1.498542	0.540782	4967.608398
6667.315387	1.458658	0.540782	6255.603516
6667.316312	0.847471	0.540782	7039.513672
6667.317376	0.095043	0.540782	7140.639160
6667.318315	0.089828	0.540782	7224.987305
6667.319179	0.089897	0.540782	7302.658691
6667.320219	0.090004	0.540782	7396.262695
6667.321245	0.089930	0.540782	7488.531250
6667.322122	0.090000	0.540782	7567.461426
6667.323066	0.089949	0.540782	7652.373047
6667.324120	0.090037	0.540782	7747.271484
6667.325059	0.089934	0.540782	7831.719727
6667.325925	0.089908	0.540782	7909.580566
6668.336700	1.175669	0.469070	644.266541
6668.337741	1.563219	0.469070	2271.577393
6668.338632	1.538434	0.469070	3642.321777
6668.339560	1.496949	0.469070	5031.490723
6668.340625	1.450071	0.469070	6575.815918
6668.341572	0.510242	0.469070	7059.014648
6668.342436	0.092175	0.469070	7138.654297
6668.343482	0.089996	0.469070	7232.790527
6668.344497	0.090051	0.469070	7324.192383
6668.345373	0.089864	0.469070	7402.913574
6668.346336	0.090077	0.469070	7489.657715
6668.347372	0.090029	0.469070	7582.928223
6668.348306	0.089927	0.469070	7666.919922
6668.349163	0.089927	0.469070	7743.987305
6668.350192	0.090066	0.469070	7836.665039
6668.351206	0.089967	0.469070	7927.891602
6669.338553	1.050564	0.517140	442.287415
6669.339539	1.557667	0.517140	1978.147217
6669.340476	1.544593	0.517140	3425.431152
6669.341357	1.505065	0.517140	4751.393066
6669.342238	1.465203	0.517140	6042.236816
6669.343198	0.999152	0.517140	7001.422363
6669.344147	0.112852	0.517140	7108.518555
6669.345022	0.089703	0.517140	7187.008789
6669.346010	0.090011	0.517140	7275.939453
6669.347055	0.089982	0.517140	7369.970215
6669.348025	0.089956	0.517140	7457.227539
6669.348893	0.089908	0.517140	7535.268066
6669.349919	0.089894	0.517140	7627.499023
6669.350966	0.090048	0.517140	7721.778809
6669.351860	0.090011	0.517140	7802.248535
6669.352782	0.089784	0.517140	7885.029297
6670.363608	1.099321	0.467583	500.191162
6670.364503	1.557103	0.467583	1893.798584
6670.365437	1.546443	0.467583	3338.176270
6670.366397	1.504665	0.467583	4782.655273
6670.367323	1.463199	0.467583	6137.578125
6670.368197	1.046323	0.467583	7052.064453
6670.369165	0.116477	0.467583	7164.814453
6670.370061	0.089637	0.467583	7245.129395
6670.370978	0.089982	0.467583	7327.642578
6670.371852	0.090099	0.467583	7406.389160
6670.372811	0.090048	0.467583	7492.744629
6670.373755	0.089883	0.467583	7577.593750
6670.374650	0.090048	0.467583	7658.186523
6670.375567	0.090081	0.467583	7740.790527
6670.376515	0.090026	0.467583	7826.134766
6670.377443	0.089945	0.467583	7909.604004
6671.366127	1.082706	0.506883	503.458435
6671.367020	1.556975	0.506883	1893.837158
6671.367930	1.547055	0.506883	3301.656738
6671.368870	1.504757	0.506883	4716.128418
6671.369815	1.462646	0.506883	6098.329102
6671.370708	1.044961	0.506883	7031.479004
6671.371619	0.119004	0.506883	7139.891602
6671.372580	0.089967	0.506883	7226.350098
6671.373504	0.089908	0.506883	7309.425293
6671.374368	0.089908	0.506883	7387.105957
6671.375331	0.090011	0.506883	7473.786621
6671.376272	0.089897	0.506883	7558.380371
6671.377161	0.089861	0.506883	7638.266602
6671.378047	0.089919	0.506883	7717.935059
6671.378977	0.090088	0.506883	7801.716797
6671.379922	0.089945	0.506883	7886.714844
6672.391166	1.111388	0.460179	543.468628
6672.392098	1.559436	0.460179	1996.862915
6672.393025	1.544429	0.460179	3428.548340
6672.393890	1.505292	0.460179	4730.625977
6672.394853	1.462808	0.460179	6139.309570
6672.395799	0.934479	0.460179	7023.326660
6672.396713	0.104985	0.460179	7119.283203
6672.397589	0.089755	0.460179	7197.908203
6672.398550	0.089868	0.460179	7284.271484
6672.399507	0.089755	0.460179	7370.166504
6672.400404	0.090066	0.460179	7450.955566
6672.401310	0.089916	0.460179	7532.419434
6672.402264	0.089901	0.460179	7618.185059
6672.403156	0.090077	0.460179	7698.533691
6672.404087	0.089861	0.460179	7782.194336
6672.404999	0.090000	0.460179	7864.274414
6673.393089	1.060525	0.518747	456.025665
6673.394064	1.556429	0.518747	1973.544312
6673.394955	1.545945	0.518747	3350.980957
6673.395878	1.505914	0.518747	4740.939941
6673.396742	1.465931	0.518747	6007.504883
6673.397728	1.005769	0.518747	6999.193359
6673.398667	0.110768	0.518747	7103.204102
6673.399548	0.089897	0.518747	7182.403809
6673.400553	0.090037	0.518747	7272.890625
6673.401451	0.089989	0.518747	7353.700684
6673.402382	0.089854	0.518747	7437.354492
6673.403246	0.089868	0.518747	7515.000488
6673.404207	0.089795	0.518747	7601.293457
6673.405155	0.089993	0.518747	7686.606445
6673.406082	0.089993	0.518747	7770.029785
6673.406940	0.089938	0.518747	7847.196289
6674.417609	1.064180	0.467748	463.982330
6674.418483	1.554368	0.467748	1822.499634
6674.419347	1.550720	0.467748	3162.321777
6674.420410	1.505548	0.467748	4762.719727
6674.421307	1.464485	0.467748	6076.362305
6674.422189	1.089822	0.467748	7037.584961
6674.423096	0.134707	0.467748	7159.764160
6674.424118	0.090026	0.467748	7251.770508
6674.425008	0.089901	0.467748	7331.782715
6674.425876	0.090234	0.467748	7410.105957
6674.426867	0.089956	0.467748	7499.252441
6674.427780	0.089985	0.467748	7581.409180
6674.428693	0.089919	0.467748	7663.505859
6674.429569	0.090125	0.467748	7742.455078
6674.430597	0.089912	0.467748	7834.884766
6674.431491	0.089854	0.467748	7915.213867
6675.421145	1.094850	0.493654	487.208160
6675.422020	1.555302	0.493654	1848.096924
6675.422881	1.548413	0.493654	3181.280518
6675.423948	1.503999	0.493654	4786.047363
6675.424835	1.464100	0.493654	6084.704102
6675.425707	1.094077	0.493654	7038.739258
6675.426682	0.128342	0.493654	7163.873047
6675.427600	0.090015	0.493654	7246.506348
6675.428517	0.090117	0.493654	7329.144043
6675.429394	0.089960	0.493654	7408.038574
6675.430425	0.090128	0.493654	7500.960937
6675.431314	0.090220	0.493654	7581.166504
6675.432191	0.090018	0.493654	7660.112793
6675.433139	0.090011	0.493654	7745.443359
6675.434123	0.090015	0.493654	7834.017578
6675.435035	0.089956	0.493654	7916.057617
6676.445625	1.048085	0.459285	441.243683
6676.446622	1.555320	0.459285	1991.897461
6676.447546	1.543813	0.459285	3418.381104
6676.448471	1.503113	0.459285	4808.760742
6676.449347	1.463199	0.459285	6090.523437
6676.450394	0.850045	0.459285	6980.520508
6676.451284	0.101243	0.459285	7070.626465
6676.452161	0.089923	0.459285	7149.489258
6676.453138	0.089835	0.459285	7237.258301
6676.454090	0.089930	0.459285	7322.872070
6676.455004	0.089945	0.459285	7405.082031
6676.455871	0.089978	0.459285	7483.092773
6676.456903	0.089971	0.459285	7575.942383
6676.457785	0.089857	0.459285	7655.196289
6676.458663	0.089905	0.459285	7734.132812
6676.459539	0.089854	0.459285	7812.844727
6677.447615	1.052318	0.502448	448.287567
6677.448485	1.553247	0.502448	1799.612549
6677.449493	1.545348	0.502448	3357.323242
6677.450487	1.501322	0.502448	4849.637207
6677.451377	1.461888	0.502448	6150.717773
6677.452244	0.984862	0.502448	7004.593262
6677.453352	0.098954	0.502448	7114.234375
6677.454255	0.089583	0.502448	7195.127441
6677.455130	0.090103	0.502448	7273.967285
6677.456145	0.089949	0.502448	7365.265137
6677.457123	0.089952	0.502448	7453.238770
6677.458010	0.089993	0.502448	7533.062500
6677.458870	0.090044	0.502448	7610.500488
6677.459951	0.089908	0.502448	7707.691406
6677.460852	0.089952	0.502448	7788.738281
6677.461719	0.089890	0.502448	7866.672852
6678.471108	1.062506	0.464260	457.940125
6678.471974	1.553027	0.464260	1802.861816
6678.473068	1.542426	0.464260	3490.275391
6678.473982	1.501351	0.464260	4862.510254
6678.474859	1.462258	0.464260	6144.910645
6678.475847	0.878434	0.464260	7012.803223
6678.476862	0.097225	0.464260	7111.486816
6678.477749	0.089810	0.464260	7191.147949
6678.478607	0.089916	0.464260	7268.295898
6678.479649	0.090015	0.464260	7362.091309
6678.480589	0.089835	0.464260	7446.536621
6678.481468	0.089905	0.464260	7525.562988
6678.482413	0.090018	0.464260	7610.630371
6678.483447	0.089908	0.464260	7703.595703
6678.484342	0.089883	0.464260	7784.041016
6678.485202	0.089897	0.464260	7861.353027
6679.475754	1.149324	0.487886	598.797668
6679.476781	1.562703	0.487886	2203.693359
6679.477664	1.540126	0.487886	3563.624512
6679.478645	1.496953	0.487886	5032.135742
6679.479701	1.450496	0.487886	6563.859375
6679.480614	0.563643	0.487886	7078.464844
6679.481470	0.092882	0.487886	7157.971680
6679.482511	0.089956	0.487886	7251.615723
6679.483518	0.089832	0.487886	7342.076172
6679.484409	0.090044	0.487886	7422.305176
6679.485373	0.090022	0.487886	7509.086426
6679.486422	0.089934	0.487886	7603.427246
6679.487332	0.090000	0.487886	7685.327148
6679.488198	0.089993	0.487886	7763.260742
6679.489298	0.089967	0.487886	7862.224609
6679.490272	0.089806	0.487886	7949.695801
6680.499164	1.099255	0.459692	493.565704
6680.500063	1.557469	0.459692	1893.730713
6680.500928	1.548234	0.459692	3232.952637
6680.501905	1.506050	0.459692	4704.363281
6680.502873	1.463493	0.459692	6121.023926
6680.503772	1.034000	0.459692	7050.590332
6680.504741	0.122131	0.459692	7168.935547
6680.505793	0.089934	0.459692	7263.546387
6680.506784	0.089971	0.459692	7352.707520
6680.507662	0.089949	0.459692	7431.682617
6680.508662	0.089978	0.459692	7521.660645
6680.509707	0.090048	0.459692	7615.760254
6680.510586	0.089824	0.459692	7694.715820
6680.511459	0.090103	0.459692	7773.375488
6680.512551	0.090018	0.459692	7871.675293
6680.513543	0.090088	0.459692	7961.042480
6681.502677	1.077264	0.475366	473.996338
6681.503542	1.554075	0.475366	1818.270996
6681.504530	1.547135	0.475366	3346.840332
6681.505445	1.505083	0.475366	4723.991211
6681.506356	1.464459	0.475366	6058.113770
6681.507237	1.054618	0.475366	6987.231934
6681.508214	0.115697	0.475366	7100.268066
6681.509161	0.089648	0.475366	7185.165039
6681.510046	0.089908	0.475366	7264.733887
6681.510951	0.089945	0.475366	7346.134277
6681.511899	0.089956	0.475366	7431.412598
6681.512825	0.089934	0.475366	7514.691406
6681.513689	0.089934	0.475366	7592.394531
6681.514633	0.089744	0.475366	7677.112305
6681.515552	0.089897	0.475366	7759.728027
6681.516476	0.090022	0.475366	7842.908203
6682.525654	1.073987	0.464493	475.776184
6682.526524	1.554576	0.464493	1828.257568
6682.527481	1.547336	0.464493	3309.058594
6682.528405	1.505197	0.464493	4699.860352
6682.529327	1.464481	0.464493	6050.112305
6682.530209	1.054208	0.464493	6979.923340
6682.531179	0.116990	0.464493	7093.403320
6682.532129	0.089762	0.464493	7178.677246
6682.533021	0.089978	0.464493	7258.937500
6682.533925	0.089956	0.464493	7340.257812
6682.534867	0.089974	0.464493	7425.013672
6682.535791	0.089773	0.464493	7507.963867
6682.536657	0.089897	0.464493	7585.814941
6682.537623	0.089802	0.464493	7672.563965
6682.538577	0.089879	0.464493	7758.308594
6682.539477	0.089993	0.464493	7839.301758
6683.529150	1.050146	0.476961	445.262085
6683.530069	1.556144	0.476961	1875.358154
6683.531040	1.544861	0.476961	3375.417969
6683.531972	1.504091	0.476961	4777.230469
6683.532851	1.464075	0.476961	6064.152344
6683.533821	0.977300	0.476961	7012.133301
6683.534778	0.106875	0.476961	7114.412598
6683.535671	0.089894	0.476961	7194.687988
6683.536573	0.089982	0.476961	7275.851562
6683.537501	0.090015	0.476961	7359.385254
6683.538450	0.089971	0.476961	7444.767578
6683.539325	0.089927	0.476961	7523.453613
6683.540231	0.089755	0.476961	7604.771484
6683.541178	0.089886	0.476961	7689.894043
6683.542105	0.089938	0.476961	7773.266113
6683.542983	0.089934	0.476961	7852.228027
6684.553192	1.085237	0.462850	494.867981
6684.554074	1.556301	0.462850	1867.525635
6684.554943	1.549325	0.462850	3213.889160
6684.555833	1.509609	0.462850	4557.441406
6684.556826	1.465367	0.462850	6012.551270
6684.557760	1.067549	0.462850	7009.641602
6684.558641	0.126716	0.462850	7121.278809
6684.559589	0.089982	0.462850	7206.581543
6684.560533	0.090018	0.462850	7291.558594
6684.561458	0.089886	0.462850	7374.703613
6684.562323	0.089974	0.462850	7452.531250
6684.563246	0.090040	0.462850	7535.638672
6684.564167	0.089934	0.462850	7618.467773
6684.565085	0.089864	0.462850	7700.963379
6684.565959	0.089890	0.462850	7779.527344
6684.566920	0.089996	0.462850	7866.013672
6685.555748	1.143193	0.496474	608.178894
6685.556683	1.561648	0.496474	2068.319824
6685.557609	1.542140	0.496474	3496.341309
6685.558474	1.502607	0.496474	4796.096680
6685.559508	1.457842	0.496474	6303.504883
6685.560392	0.870124	0.496474	7072.694824
6685.561264	0.104696	0.496474	7163.989746
6685.562250	0.089908	0.496474	7252.639648
6685.563194	0.090059	0.496474	7337.654785
6685.564098	0.089832	0.496474	7418.862305
6685.564973	0.089963	0.496474	7497.580078
6685.566009	0.089934	0.496474	7590.751953
6685.566913	0.089985	0.496474	7672.098633
6685.567819	0.089952	0.496474	7753.595703
6685.568698	0.089916	0.496474	7832.631836
6685.569647	0.089967	0.496474	7918.010742
6686.581686	1.049879	0.436493	441.999146
6686.582639	1.554305	0.436493	1923.252197
6686.583576	1.545765	0.436493	3371.634277
6686.584496	1.505123	0.436493	4756.347656
6686.585368	1.465660	0.436493	6034.403320
6686.586356	0.981053	0.436493	7003.684082
6686.587288	0.110178	0.436493	7106.370117
6686.588192	0.089963	0.436493	7187.696777
6686.589067	0.089875	0.436493	7266.337891
6686.590033	0.089971	0.436493	7353.249512
6686.590978	0.090018	0.436493	7438.316895
6686.591870	0.090084	0.436493	7518.671875
6686.592784	0.089949	0.436493	7600.885254
6686.593706	0.089886	0.436493	7683.760742
6686.594644	0.090103	0.436493	7768.276855
6686.595507	0.090004	0.436493	7845.950195
6687.583178	1.066366	0.487656	464.935547
6687.584048	1.553884	0.487656	1816.814819
6687.584909	1.549808	0.487656	3151.199707
6687.585947	1.505735	0.487656	4714.152344
6687.586842	1.465195	0.487656	6025.501953
6687.587724	1.127542	0.487656	7019.993652
6687.588689	0.139307	0.487656	7154.424805
6687.589639	0.089850	0.487656	7239.782227
6687.590557	0.090062	0.487656	7322.459473
6687.591423	0.089890	0.487656	7400.304199
6687.592453	0.089905	0.487656	7492.906250
6687.593333	0.090059	0.487656	7572.157715
6687.594255	0.089813	0.487656	7654.965332
6687.595122	0.090077	0.487656	7733.062012
6687.596065	0.089916	0.487656	7817.852539
6687.596989	0.089982	0.487656	7900.995605
6688.609265	1.113186	0.434092	517.631470
6688.610151	1.557107	0.434092	1897.228271
6688.611022	1.548940	0.434092	3246.355469
6688.612028	1.505680	0.434092	4761.069336
6688.612955	1.462668	0.434092	6116.962891
6688.613878	0.991392	0.434092	7032.017578
6688.614757	0.115540	0.434092	7133.576660
6688.615784	0.089817	0.434092	7225.818359
6688.616677	0.089945	0.434092	7306.139160
6688.617550	0.089960	0.434092	7384.673828
6688.618485	0.089949	0.434092	7468.775879
6688.619477	0.090051	0.434092	7558.106934
6688.620392	0.089864	0.434092	7640.333008
6688.621272	0.089956	0.434092	7719.494141
6688.622148	0.090055	0.434092	7798.382324
6688.623114	0.090004	0.434092	7885.325684
6689.610677	1.046107	0.477735	438.318909
6689.611584	1.552046	0.477735	1846.024658
6689.612603	1.543751	0.477735	3419.107178
6689.613499	1.504244	0.477735	4766.910156
6689.614375	1.465023	0.477735	6050.270508
6689.615369	0.952471	0.477735	6997.026367
6689.616297	0.106740	0.477735	7096.080566
6689.617226	0.090018	0.477735	7179.707520
6689.618090	0.090026	0.477735	7257.489746
6689.619121	0.090143	0.477735	7350.426758
6689.620000	0.090040	0.477735	7429.572266
6689.620866	0.090081	0.477735	7507.582031
6689.621828	0.090026	0.477735	7594.186523
6689.622770	0.089883	0.477735	7678.855957
6689.623683	0.089985	0.477735	7761.012695
6689.624562	0.089938	0.477735	7840.067871
6690.636266	1.117013	0.434434	513.825989
6690.637187	1.558667	0.434434	1949.358154
6690.638055	1.546476	0.434434	3291.699219
6690.639097	1.502025	0.434434	4856.809570
6690.639985	1.461789	0.434434	6154.878906
6690.640912	0.967313	0.434434	7051.578125
6690.641770	0.114221	0.434434	7149.580078
6690.642734	0.089824	0.434434	7236.170410
6690.643655	0.089941	0.434434	7319.006348
6690.644532	0.090011	0.434434	7397.945801
6690.645553	0.089993	0.434434	7489.828125
6690.646449	0.090084	0.434434	7570.543457
6690.647363	0.089908	0.434434	7652.719727
6690.648229	0.090011	0.434434	7730.669434
6690.649207	0.090073	0.434434	7818.761230
6690.650117	0.090033	0.434434	7900.691406
6691.638277	1.119950	0.481718	554.375244
6691.639231	1.561102	0.481718	2043.666870
6691.640157	1.542913	0.481718	3472.403809
6691.641024	1.503845	0.481718	4776.237305
6691.642070	1.458321	0.481718	6301.641602
6691.642958	0.872325	0.481718	7076.266602
6691.643827	0.104462	0.481718	7167.043945
6691.644738	0.089846	0.481718	7248.894043
6691.645747	0.089674	0.481718	7339.375000
6691.646645	0.089963	0.481718	7420.162109
6691.647545	0.090033	0.481718	7501.191895
6691.648537	0.089934	0.481718	7590.406738
6691.649461	0.090062	0.481718	7673.624023
6691.650384	0.090022	0.481718	7756.714355
6691.651248	0.090018	0.481718	7834.490234
6691.652285	0.089894	0.481718	7927.709961
6692.663223	1.047949	0.440807	442.234558
6692.664246	1.557773	0.440807	2035.836914
6692.665294	1.538807	0.440807	3648.507080
6692.666185	1.498092	0.440807	4983.307129
6692.667049	1.459431	0.440807	6244.255859
6692.668097	0.707655	0.440807	6985.878418
6692.669054	0.093314	0.440807	7075.180176
6692.669925	0.090099	0.440807	7153.656250
6692.670814	0.090051	0.440807	7233.711914
6692.671904	0.090062	0.440807	7331.879883
6692.672786	0.090209	0.440807	7411.443848
6692.673643	0.089993	0.440807	7488.567383
6692.674702	0.090029	0.440807	7583.908203
6692.675676	0.090139	0.440807	7671.703613
6692.676550	0.090088	0.440807	7750.440430
6692.677414	0.089960	0.440807	7828.165527
6693.665274	1.120089	0.476232	537.642761
6693.666158	1.558173	0.476232	1915.067383
6693.667122	1.544901	0.476232	3404.352051
6693.668191	1.496938	0.476232	5004.579102
6693.669132	1.455458	0.476232	6374.165039
6693.670008	0.792792	0.476232	7068.650391
6693.671079	0.093409	0.476232	7168.691895
6693.672079	0.089850	0.476232	7258.541992
6693.672974	0.089949	0.476232	7339.045898
6693.673929	0.090015	0.476232	7425.009766
6693.674972	0.089912	0.476232	7518.788086
6693.675878	0.089945	0.476232	7600.278320
6693.676736	0.089989	0.476232	7677.488770
6693.677797	0.090070	0.476232	7773.052734
6693.678784	0.089982	0.476232	7861.864746
6693.679659	0.090018	0.476232	7940.630859
6694.691343	1.131032	0.438720	573.432983
6694.692280	1.561307	0.438720	2036.377930
6694.693149	1.544974	0.438720	3378.960693
6694.694199	1.498528	0.438720	4952.415039
6694.695230	1.453272	0.438720	6450.737793
6694.696130	0.694841	0.438720	7076.094727
6694.697086	0.095585	0.438720	7167.473633
6694.698136	0.089960	0.438720	7261.931152
6694.699067	0.089916	0.438720	7345.642578
6694.699933	0.089934	0.438720	7423.525391
6694.700987	0.089941	0.438720	7518.323730
6694.701970	0.089938	0.438720	7606.732422
6694.702850	0.089934	0.438720	7685.874512
6694.703839	0.090026	0.438720	7774.909668
6694.704873	0.089875	0.438720	7867.840820
6694.705779	0.089985	0.438720	7949.367676
6695.693269	1.090459	0.476200	477.621033
6695.694203	1.558209	0.476200	1932.988525
6695.695127	1.545915	0.476200	3361.414551
6695.695994	1.506705	0.476200	4667.728027
6695.696975	1.463529	0.476200	6103.450195
6695.697939	0.958257	0.476200	7027.209961
6695.698834	0.108977	0.476200	7124.744629
6695.699746	0.089923	0.476200	7206.754395
6695.700711	0.089729	0.476200	7293.342773
6695.701625	0.089956	0.476200	7375.562500
6695.702492	0.089971	0.476200	7453.566895
6695.703411	0.089927	0.476200	7536.209473
6695.704347	0.090070	0.476200	7620.514648
6695.705273	0.090099	0.476200	7703.946289
6695.706150	0.089982	0.476200	7782.860352
6695.707225	0.090051	0.476200	7879.665527
6696.718265	1.049714	0.427155	440.880005
6696.719188	1.552884	0.427155	1874.192383
6696.720137	1.546260	0.427155	3341.592773
6696.721078	1.504468	0.427155	4757.296875
6696.721966	1.464975	0.427155	6058.195312
6696.722894	1.022534	0.427155	7007.106934
6696.723851	0.113756	0.427155	7115.971680
6696.724768	0.089941	0.427155	7198.447754
6696.725632	0.089941	0.427155	7276.157227
6696.726597	0.090018	0.427155	7363.024902
6696.727524	0.090168	0.427155	7446.610840
6696.728413	0.089963	0.427155	7526.588379
6696.729282	0.090059	0.427155	7604.849121
6696.730253	0.090026	0.427155	7692.264160
6696.731195	0.090066	0.427155	7777.106445
6696.732086	0.090095	0.427155	7857.381348
6697.720765	1.056306	0.474999	452.099030
6697.721630	1.552987	0.474999	1795.432861
6697.722610	1.547135	0.474999	3311.625000
6697.723538	1.506478	0.474999	4709.636719
6697.724420	1.466576	0.474999	6003.156738
6697.725356	1.082523	0.474999	7016.398437
6697.726293	0.123776	0.474999	7132.375977
6697.727220	0.089854	0.474999	7215.670410
6697.728100	0.089963	0.474999	7294.838379
6697.729016	0.089813	0.474999	7377.107422
6697.729965	0.090048	0.474999	7462.562500
6697.730891	0.089930	0.474999	7545.837891
6697.731754	0.089916	0.474999	7623.435059
6697.732726	0.090062	0.474999	7710.975586
6697.733670	0.090026	0.474999	7795.959961
6697.734563	0.090095	0.474999	7876.415039
6698.745819	1.112267	0.429781	502.744629
6698.746756	1.559561	0.429781	1964.052856
6698.747637	1.547223	0.429781	3327.156250
6698.748570	1.505775	0.429781	4732.044434
6698.749530	1.463042	0.429781	6136.564453
6698.750460	0.985042	0.429781	7052.653320
6698.751323	0.116832	0.429781	7153.479492
6698.752266	0.089956	0.429781	7238.308105
6698.753222	0.089974	0.429781	7324.323730
6698.754111	0.090048	0.429781	7404.375977
6698.755010	0.090011	0.429781	7485.295898
6698.755939	0.090092	0.429781	7568.990723
6698.756888	0.090062	0.429781	7654.459961
6698.757775	0.089919	0.429781	7734.218262
6698.758690	0.090048	0.429781	7816.611816
6698.759648	0.090004	0.429781	7902.835449
6699.748327	1.077425	0.465537	491.306030
6699.749221	1.556085	0.465537	1882.446167
6699.750085	1.548878	0.465537	3220.676758
6699.750979	1.508829	0.465537	4569.570312
6699.751966	1.465360	0.465537	6015.880859
6699.752921	1.027500	0.465537	6997.143555
6699.753814	0.118063	0.465537	7102.573730
6699.754737	0.089905	0.465537	7185.555664
6699.755686	0.090004	0.465537	7270.969238
6699.756607	0.089813	0.465537	7353.687012
6699.757490	0.089930	0.465537	7433.095703
6699.758422	0.090007	0.465537	7516.982422
6699.759371	0.089872	0.465537	7602.270996
6699.760243	0.090026	0.465537	7680.773437
6699.761213	0.090084	0.465537	7768.155273
6699.762135	0.090015	0.465537	7851.148926
6700.772294	1.062140	0.440336	459.906555
6700.773168	1.553888	0.440336	1818.004639
6700.774028	1.549574	0.440336	3150.638184
6700.775014	1.507870	0.440336	4637.397949
6700.775935	1.466741	0.440336	5988.266113
6700.776831	1.145032	0.440336	7014.214844
6700.777796	0.144382	0.440336	7153.543945
6700.778723	0.089912	0.440336	7236.892578
6700.779638	0.089930	0.440336	7319.178711
6700.780520	0.089967	0.440336	7398.529785
6700.781454	0.089978	0.440336	7482.569336
6700.782404	0.089960	0.440336	7568.031250
6700.783323	0.089949	0.440336	7650.694336
6700.784182	0.089971	0.440336	7727.979004
6700.785131	0.089857	0.440336	7813.253418
6700.786073	0.089799	0.440336	7897.843750
6701.775819	1.070453	0.457315	468.858368
6701.776691	1.554595	0.457315	1824.464966
6701.777722	1.544476	0.457315	3416.819824
6701.778623	1.504186	0.457315	4772.091309
6701.779503	1.464741	0.457315	6061.063477
6701.780427	1.003418	0.457315	6988.221680
6701.781450	0.105066	0.457315	7095.704102
6701.782373	0.089810	0.457315	7178.598145
6701.783236	0.090022	0.457315	7256.287109
6701.784303	0.089875	0.457315	7352.184082
6701.785185	0.090011	0.457315	7431.573730
6701.786048	0.090070	0.457315	7509.303711
6701.786913	0.089993	0.457315	7587.147461
6701.787976	0.090026	0.457315	7682.844727
6701.788861	0.089908	0.457315	7762.413574
6701.789739	0.089989	0.457315	7841.423828
6702.799292	1.050604	0.432964	445.456177
6702.800323	1.557162	0.432964	2050.890137
6702.801290	1.540320	0.432964	3540.379395
6702.802215	1.499659	0.432964	4927.564453
6702.803080	1.459438	0.432964	6189.978516
6702.804189	0.699844	0.432964	6966.105469
6702.805061	0.094479	0.432964	7048.490723
6702.805937	0.089996	0.432964	7127.327637
6702.806799	0.089824	0.432964	7204.756348
6702.807841	0.089773	0.432964	7298.299805
6702.808726	0.089813	0.432964	7377.784668
6702.809601	0.089908	0.432964	7456.454590
6702.810594	0.089912	0.432964	7545.737305
6702.811544	0.090066	0.432964	7631.299805
6702.812466	0.090070	0.432964	7714.343750
6702.813329	0.090059	0.432964	7792.064453
6703.803920	1.133511	0.445210	571.289368
6703.804829	1.560480	0.445210	1989.765381
6703.805698	1.545414	0.445210	3332.729980
6703.806790	1.497678	0.445210	4968.194336
6703.807790	1.453583	0.445210	6421.777344
6703.808682	0.727734	0.445210	7070.916504
6703.809542	0.097280	0.445210	7154.577637
6703.810637	0.090092	0.445210	7253.228027
6703.811552	0.090026	0.445210	7335.601562
6703.812428	0.089872	0.445210	7414.329102
6703.813416	0.090077	0.445210	7503.325195
6703.814406	0.089971	0.445210	7592.395996
6703.815284	0.090000	0.445210	7671.416016
6703.816141	0.090051	0.445210	7748.589844
6703.817217	0.090033	0.445210	7845.465332
6703.818126	0.090121	0.445210	7927.385254
6704.827404	1.129343	0.417427	562.412964
6704.828289	1.559264	0.417427	1942.361572
6704.829209	1.545366	0.417427	3364.098389
6704.830297	1.497576	0.417427	4993.460937
6704.831242	1.455644	0.417427	6369.044922
6704.832112	0.817064	0.417427	7079.890625
6704.833168	0.094666	0.417427	7179.857422
6704.834191	0.089938	0.417427	7271.863770
6704.835069	0.090000	0.417427	7350.883789
6704.836002	0.090026	0.417427	7434.877930
6704.837059	0.090004	0.417427	7530.011719
6704.837975	0.089989	0.417427	7612.441895
6704.838842	0.089963	0.417427	7690.439941
6704.839881	0.090029	0.417427	7783.980469
6704.840900	0.089985	0.417427	7875.675781
6704.841784	0.089886	0.417427	7955.135254
6705.830340	1.053651	0.460187	449.909027
6705.831204	1.553218	0.460187	1791.889160
6705.832147	1.547666	0.460187	3251.338379
6705.833107	1.505911	0.460187	4697.012695
6705.834037	1.464847	0.460187	6059.320801
6705.834903	1.077916	0.460187	6992.796387
6705.835867	0.123252	0.460187	7111.611328
6705.836813	0.089908	0.460187	7196.664551
6705.837705	0.090062	0.460187	7277.000000
6705.838620	0.089952	0.460187	7359.306641
6705.839579	0.089982	0.460187	7445.599121
6705.840505	0.089974	0.460187	7528.915527
6705.841380	0.089938	0.460187	7607.610840
6705.842354	0.089960	0.460187	7695.231445
6705.843295	0.089945	0.460187	7779.869629
6705.844213	0.089923	0.460187	7862.418945
6706.853897	1.123121	0.424714	563.806946
6706.854769	1.558744	0.424714	1923.031738
6706.855684	1.545769	0.424714	3337.410400
6706.856760	1.498561	0.424714	4949.861816
6706.857703	1.456988	0.424714	6323.801758
6706.858580	0.854594	0.424714	7073.280273
6706.859611	0.096229	0.424714	7172.492676
6706.860635	0.089897	0.424714	7264.547852
6706.861527	0.089993	0.424714	7344.821289
6706.862468	0.090132	0.424714	7429.635254
6706.863517	0.090026	0.424714	7524.072266
6706.864452	0.089956	0.424714	7608.181152
6706.865315	0.090000	0.424714	7685.851074
6706.866368	0.090095	0.424714	7780.721191
6706.867363	0.089901	0.424714	7870.172852
6706.868253	0.090081	0.424714	7950.344727
6707.858422	1.093389	0.442616	517.172852
6707.859320	1.558158	0.442616	1916.398682
6707.860239	1.546256	0.442616	3337.407959
6707.861121	1.507130	0.442616	4666.696777
6707.862080	1.464375	0.442616	6071.032227
6707.863020	0.979124	0.442616	6991.408203
6707.863955	0.110640	0.442616	7094.856445
6707.864818	0.089729	0.442616	7172.292480
6707.865784	0.090037	0.442616	7259.268066
6707.866734	0.089993	0.442616	7344.761230
6707.867607	0.089938	0.442616	7423.276855
6707.868517	0.089806	0.442616	7505.000000
6707.869469	0.089960	0.442616	7590.641602
6707.870399	0.090007	0.442616	7674.348633
6707.871280	0.089985	0.442616	7753.625488
6707.872216	0.089930	0.442616	7837.800293
6708.880315	1.048813	0.421225	439.452850
6708.881220	1.552833	0.421225	1844.766968
6708.882159	1.546626	0.421225	3297.048828
6708.883122	1.504750	0.421225	4746.123047
6708.884015	1.464811	0.421225	6054.199219
6708.884935	1.041475	0.421225	7012.355957
6708.885896	0.116818	0.421225	7124.617676
6708.886817	0.089897	0.421225	7207.413086
6708.887684	0.089905	0.421225	7285.360352
6708.888603	0.089982	0.421225	7368.053711
6708.889538	0.090018	0.421225	7452.220703
6708.890462	0.090150	0.421225	7535.519531
6708.891324	0.089857	0.421225	7612.976562
6708.892295	0.090088	0.421225	7700.452148
6708.893222	0.090125	0.421225	7783.997559
6708.894085	0.089890	0.421225	7861.572754
6709.885417	1.109484	0.437387	515.909912
6709.886307	1.557521	0.437387	1902.103394
6709.887175	1.547988	0.437387	3245.757080
6709.888152	1.505980	0.437387	4717.099609
6709.889112	1.463313	0.437387	6121.879883
6709.890011	1.032554	0.437387	7050.145508
6709.890920	0.123062	0.437387	7162.008301
6709.891875	0.089747	0.437387	7247.716797
6709.892798	0.089850	0.437387	7330.648437
6709.893663	0.090081	0.437387	7408.568359
6709.894618	0.089806	0.437387	7494.333008
6709.895543	0.089901	0.437387	7577.491699
6709.896467	0.089868	0.437387	7660.529785
6709.897345	0.089854	0.437387	7739.421387
6709.898306	0.089938	0.437387	7825.851562
6709.899254	0.089952	0.437387	7911.126465
6710.908921	1.129644	0.408987	541.099243
6710.909804	1.557715	0.408987	1916.561401
6710.910735	1.546132	0.408987	3356.009766
6710.911690	1.504189	0.408987	4792.510742
6710.912616	1.462903	0.408987	6147.158691
6710.913480	1.045170	0.408987	7050.185547
6710.914422	0.117491	0.408987	7160.862305
6710.915375	0.089927	0.408987	7246.562500
6710.916268	0.090011	0.408987	7326.942383
6710.917131	0.089912	0.408987	7404.536621
6710.918093	0.089989	0.408987	7491.105957
6710.919037	0.090095	0.408987	7576.155762
6710.919930	0.090018	0.408987	7656.541992
6710.920845	0.089938	0.408987	7738.834961
6710.921799	0.089985	0.408987	7824.681152
6710.922690	0.089985	0.408987	7904.857910
6711.912376	1.058866	0.444352	447.900330
6711.913404	1.559861	0.444352	2051.437256
6711.914305	1.543465	0.444352	3442.099609
6711.915218	1.503201	0.444352	4814.521973
6711.916101	1.463189	0.444352	6106.517578
6711.917073	0.931274	0.444352	7011.716309
6711.917998	0.104235	0.444352	7108.133301
6711.918879	0.089854	0.444352	7187.294434
6711.919887	0.090007	0.444352	7278.021973
6711.920797	0.090077	0.444352	7359.992187
6711.921713	0.090103	0.444352	7442.525879
6711.922585	0.089938	0.444352	7520.951660
6711.923562	0.089985	0.444352	7608.867187
6711.924468	0.090018	0.444352	7690.423828
6711.925384	0.089930	0.444352	7772.800293
6711.926261	0.089938	0.444352	7851.675781
6712.935890	1.073774	0.415376	482.124725
6712.936923	1.562487	0.415376	2096.173340
6712.937822	1.542583	0.415376	3482.955566
6712.938703	1.503508	0.415376	4807.546387
6712.939708	1.459600	0.415376	6274.443848
6712.940644	0.839128	0.415376	7059.868164
6712.941558	0.100375	0.415376	7151.610840
6712.942416	0.090048	0.415376	7228.871582
6712.943441	0.089872	0.415376	7320.990234
6712.944335	0.090066	0.415376	7401.509277
6712.945213	0.090051	0.415376	7480.574219
6712.946181	0.089967	0.415376	7567.662109
6712.947132	0.090033	0.415376	7653.283691
6712.948049	0.089945	0.415376	7735.763184
6712.948911	0.090018	0.415376	7813.358887
6712.949943	0.089908	0.415376	7906.144531
6713.940931	1.065245	0.424617	461.251190
6713.941798	1.553613	0.424617	1808.234009
6713.942888	1.542378	0.424617	3489.426025
6713.943815	1.500846	0.424617	4880.709961
6713.944697	1.461515	0.424617	6169.766113
6713.945699	0.831409	0.424617	7002.837402
6713.946699	0.095193	0.424617	7098.030273
6713.947581	0.089850	0.424617	7177.277832
6713.948437	0.090157	0.424617	7254.452637
6713.949515	0.090099	0.424617	7351.579102
6713.950426	0.089905	0.424617	7433.482422
6713.951291	0.089919	0.424617	7511.262695
6713.952247	0.090044	0.424617	7597.344727
6713.953271	0.089897	0.424617	7689.399902
6713.954173	0.090125	0.424617	7770.692383
6713.955041	0.089960	0.424617	7848.777344
6714.962456	1.134240	0.410143	567.119751
6714.963423	1.562260	0.410143	2077.824707
6714.964293	1.544117	0.410143	3421.206787
6714.965298	1.499264	0.410143	4927.966797
6714.966361	1.452810	0.410143	6472.303711
6714.967261	0.665706	0.410143	7071.438477
6714.968149	0.095226	0.410143	7155.999023
6714.969226	0.089941	0.410143	7252.865723
6714.970183	0.089960	0.410143	7338.957031
6714.971051	0.089956	0.410143	7417.039062
6714.972081	0.090007	0.410143	7509.746582
6714.973111	0.089901	0.410143	7602.344727
6714.974008	0.089993	0.410143	7683.068359
6714.974947	0.089967	0.410143	7767.547363
6714.976004	0.089802	0.410143	7862.468262
6714.976943	0.089824	0.410143	7946.812988
6715.966908	1.054285	0.431276	449.125275
6715.967776	1.552789	0.431276	1796.946411
6715.968848	1.542942	0.431276	3450.979980
6715.969859	1.497762	0.431276	4965.217773
6715.970751	1.458424	0.431276	6266.131836
6715.971730	0.768094	0.431276	7018.096191
6715.972787	0.093025	0.431276	7116.423340
6715.973703	0.090018	0.431276	7198.879883
6715.974569	0.089923	0.431276	7276.753418
6715.975668	0.090018	0.431276	7375.683594
6715.976632	0.089919	0.431276	7462.365723
6715.977506	0.089960	0.431276	7540.990723
6715.978511	0.090037	0.431276	7631.477539
6715.979559	0.090037	0.431276	7725.835937
6715.980445	0.090059	0.431276	7805.627930
6715.981311	0.090026	0.431276	7883.590332
6716.989913	1.100497	0.405628	495.223541
6716.990796	1.556338	0.405628	1869.469849
6716.991798	1.544213	0.405628	3416.770996
6716.992857	1.497612	0.405628	5002.742187
6716.993748	1.457527	0.405628	6301.398437
6716.994658	0.824077	0.405628	7051.308594
6716.995745	0.093479	0.405628	7152.920410
6716.996695	0.089993	0.405628	7238.413574
6716.997557	0.089960	0.405628	7315.958984
6716.998594	0.089993	0.405628	7409.281250
6716.999612	0.089886	0.405628	7500.785645
6717.000491	0.089875	0.405628	7579.786133
6717.001416	0.090125	0.405628	7663.151367
6717.002464	0.089916	0.405628	7757.383301
6717.003395	0.090048	0.405628	7841.217773
6717.004253	0.090106	0.405628	7918.528809
6717.994991	1.127347	0.433874	528.725891
6717.995888	1.558092	0.433874	1926.334473
6717.996770	1.547699	0.433874	3291.405029
6717.997679	1.507211	0.433874	4661.459473
6717.998640	1.464412	0.433874	6068.758789
6717.999575	1.035733	0.433874	7037.168945
6718.000438	0.123669	0.433874	7143.895508
6718.001401	0.089872	0.433874	7230.441895
6718.002354	0.089777	0.433874	7315.999023
6718.003239	0.089890	0.433874	7395.551758
6718.004148	0.089978	0.433874	7477.341797
6718.005247	0.089934	0.433874	7576.179199
6718.006253	0.089916	0.433874	7666.634277
6718.007133	0.089967	0.433874	7745.805176
6718.008089	0.089963	0.433874	7831.810059
6718.009157	0.089919	0.433874	7927.844238
6719.017452	1.123510	0.410369	532.543518
6719.018392	1.559938	0.410369	1998.885010
6719.019316	1.544484	0.410369	3425.987793
6719.020182	1.505120	0.410369	4729.421387
6719.021158	1.462621	0.410369	6156.939453
6719.022117	0.937592	0.410369	7056.089844
6719.023003	0.109468	0.410369	7153.078125
6719.023891	0.089802	0.410369	7232.822754
6719.024827	0.089868	0.410369	7316.939453
6719.025747	0.089894	0.410369	7399.641602
6719.026609	0.089821	0.410369	7477.066895
6719.027585	0.089879	0.410369	7564.789062
6719.028534	0.089989	0.410369	7650.188477
6719.029426	0.090084	0.410369	7730.543457
6719.030342	0.090062	0.410369	7813.040527
6719.031287	0.090062	0.410369	7898.149414
6720.022460	1.056936	0.420134	449.197815
6720.023372	1.553635	0.420134	1866.113037
6720.024339	1.546135	0.420134	3361.225830
6720.025270	1.504904	0.420134	4762.291016
6720.026138	1.465518	0.420134	6034.360352
6720.027096	1.022417	0.420134	7013.835937
6720.028023	0.115400	0.420134	7120.812012
6720.028944	0.089923	0.420134	7203.631348
6720.029801	0.090092	0.420134	7280.839844
6720.030755	0.089886	0.420134	7366.591309
6720.031700	0.089989	0.420134	7451.630859
6720.032591	0.090059	0.420134	7531.873047
6720.033512	0.089996	0.420134	7614.759766
6720.034447	0.089905	0.420134	7698.820801
6720.035374	0.089960	0.420134	7782.213379
6720.036261	0.089967	0.420134	7862.014160
6721.044422	1.059430	0.413592	459.792633
6721.045295	1.554305	0.413592	1816.701294
6721.046158	1.550486	0.413592	3154.770508
6721.047141	1.509163	0.413592	4638.277344
6721.048101	1.466008	0.413592	6045.645508
6721.048999	1.099427	0.413592	7032.931641
6721.049874	0.136956	0.413592	7152.767578
6721.050819	0.089978	0.413592	7237.796875
6721.051745	0.090018	0.413592	7321.153809
6721.052624	0.089868	0.413592	7400.147949
6721.053589	0.089894	0.413592	7486.895508
6721.054537	0.089890	0.413592	7572.111328
6721.055428	0.089993	0.413592	7652.294922
6721.056333	0.089854	0.413592	7733.612305
6721.057265	0.089930	0.413592	7817.427246
6721.058218	0.089916	0.413592	7903.117187
6722.050047	1.144545	0.413966	551.670471
6722.050981	1.559861	0.413966	2008.580566
6722.051861	1.545912	0.413966	3368.982910
6722.052798	1.504731	0.413966	4778.916016
6722.053756	1.462042	0.413966	6179.552734
6722.054681	0.944550	0.413966	7053.261230
6722.055549	0.110969	0.413966	7149.582520
6722.056510	0.090015	0.413966	7236.086426
6722.057454	0.089949	0.413966	7320.998047
6722.058356	0.090073	0.413966	7402.244141
6722.059219	0.089982	0.413966	7479.898437
6722.060183	0.090073	0.413966	7566.729004
6722.061124	0.089861	0.413966	7651.288086
6722.062014	0.089916	0.413966	7731.312988
6722.062938	0.090018	0.413966	7814.489746
6722.063880	0.090066	0.413966	7899.332031
6723.071417	1.046001	0.412137	439.320404
6723.072300	1.552408	0.412137	1810.097046
6723.073263	1.546600	0.412137	3299.473145
6723.074216	1.505240	0.412137	4733.967285
6723.075107	1.465279	0.412137	6039.531250
6723.076034	1.043393	0.412137	7006.756836
6723.077004	0.116682	0.412137	7119.938477
6723.077928	0.089875	0.412137	7202.983398
6723.078790	0.089927	0.412137	7280.500488
6723.079760	0.090033	0.412137	7367.832520
6723.080671	0.090018	0.412137	7449.839355
6723.081597	0.090011	0.412137	7533.189453
6723.082462	0.090026	0.412137	7611.061523
6723.083433	0.089766	0.412137	7698.224121
6723.084380	0.089971	0.412137	7783.426270
6723.085272	0.090066	0.412137	7863.765137
6724.077042	1.116606	0.423288	516.988770
6724.077935	1.557532	0.423288	1907.864624
6724.078799	1.548226	0.423288	3245.532227
6724.079773	1.506427	0.423288	4712.791992
6724.080728	1.463983	0.423288	6110.895996
6724.081621	1.047451	0.423288	7046.270020
6724.082533	0.125046	0.423288	7160.312500
6724.083493	0.089956	0.423288	7246.670410
6724.084425	0.090044	0.423288	7330.591309
6724.085300	0.090077	0.423288	7409.408691
6724.086248	0.090084	0.423288	7494.808594
6724.087193	0.089982	0.423288	7579.841309
6724.088121	0.090114	0.423288	7663.466797
6724.088982	0.089857	0.423288	7740.833984
6724.089952	0.090121	0.423288	7828.250977
6724.090906	0.089982	0.423288	7914.093750
6725.098987	1.074939	0.406224	507.371216
6725.099924	1.559333	0.406224	1968.466675
6725.100842	1.545183	0.406224	3386.944824
6725.101714	1.506379	0.406224	4700.507812
6725.102668	1.463643	0.406224	6096.822754
6725.103601	0.959202	0.406224	6991.757812
6725.104519	0.109420	0.406224	7092.205566
6725.105401	0.090004	0.406224	7171.588867
6725.106372	0.089963	0.406224	7258.943359
6725.107306	0.090062	0.406224	7343.061523
6725.108199	0.089978	0.406224	7423.412109
6725.109107	0.089912	0.406224	7505.052246
6725.110055	0.090015	0.406224	7590.386230
6725.110973	0.089967	0.406224	7672.976074
6725.111837	0.089974	0.406224	7750.713867
6725.112807	0.089934	0.406224	7837.949707
6726.104515	1.053962	0.413773	447.933990
6726.105416	1.552884	0.413773	1847.082886
6726.106362	1.545659	0.413773	3309.276367
6726.107330	1.503885	0.413773	4765.037598
6726.108223	1.463957	0.413773	6072.351562
6726.109143	1.021901	0.413773	7012.500000
6726.110100	0.111764	0.413773	7119.458008
6726.111021	0.089897	0.413773	7202.253418
6726.111883	0.090081	0.413773	7279.902832
6726.112857	0.089996	0.413773	7367.559082
6726.113801	0.089996	0.413773	7452.515625
6726.114703	0.089938	0.413773	7533.639648
6726.115567	0.089850	0.413773	7611.270020
6726.116512	0.089941	0.413773	7696.264648
6726.117464	0.089861	0.413773	7781.812012
6726.118357	0.090103	0.413773	7862.273437
6727.127010	1.076942	0.389655	500.778076
6727.127894	1.556851	0.389655	1877.033936
6727.128817	1.547864	0.389655	3305.712402
6727.129764	1.505603	0.389655	4731.518555
6727.130696	1.463774	0.389655	6095.756348
6727.131576	1.075111	0.389655	7041.854004
6727.132483	0.124867	0.389655	7155.108398
6727.133437	0.089945	0.389655	7240.916016
6727.134364	0.089875	0.389655	7324.230469
6727.135241	0.089982	0.389655	7403.144531
6727.136213	0.089901	0.389655	7490.528320
6727.137157	0.089810	0.389655	7575.308594
6727.138048	0.089897	0.389655	7655.407227
6727.138931	0.090026	0.389655	7734.899902
6727.139888	0.089971	0.389655	7821.001953
6727.140848	0.089989	0.389655	7907.391602
6728.132087	1.142175	0.404616	542.533264
6728.133024	1.559952	0.404616	2004.208740
6728.133951	1.544084	0.404616	3435.574951
6728.134819	1.504819	0.404616	4741.757812
6728.135779	1.462511	0.404616	6145.768555
6728.136742	0.927224	0.404616	7038.685547
6728.137634	0.108424	0.404616	7135.399902
6728.138562	0.089908	0.404616	7218.834961
6728.139490	0.090099	0.404616	7302.446777
6728.140377	0.090029	0.404616	7382.302734
6728.141255	0.090004	0.404616	7461.326172
6728.142253	0.089963	0.404616	7551.109375
6728.143174	0.090044	0.404616	7634.040039
6728.144057	0.090055	0.404616	7713.558594
6728.144980	0.089930	0.404616	7796.564453
6728.145912	0.089843	0.404616	7880.297852
6729.153475	1.054438	0.409539	450.245239
6729.154414	1.553064	0.409539	1908.572266
6729.155378	1.544564	0.409539	3397.532227
6729.156293	1.504061	0.409539	4773.748047
6729.157169	1.464668	0.409539	6056.796875
6729.158226	0.865463	0.409539	6971.590820
6729.159128	0.101136	0.409539	7062.815918
6729.160003	0.089824	0.409539	7141.412109
6729.160879	0.089916	0.409539	7220.178223
6729.161907	0.089810	0.409539	7312.502441
6729.162791	0.089978	0.409539	7392.042969
6729.163663	0.090011	0.409539	7470.532715
6729.164662	0.089780	0.409539	7560.223145
6729.165581	0.090077	0.409539	7643.003906
6729.166483	0.089894	0.409539	7724.087891
6729.167360	0.090040	0.409539	7803.053223
6730.158550	1.083047	0.421137	485.204956
6730.159429	1.555499	0.421137	1852.488892
6730.160290	1.548204	0.421137	3185.492676
6730.161385	1.502530	0.421137	4830.763672
6730.162284	1.461647	0.421137	6144.784180
6730.163171	1.019839	0.421137	7049.381348
6730.164163	0.113756	0.421137	7162.227539
6730.165154	0.089835	0.421137	7251.254395
6730.166040	0.090000	0.421137	7330.994629
6730.166902	0.090066	0.421137	7408.631348
6730.167996	0.090059	0.421137	7507.155273
6730.168915	0.090055	0.421137	7589.915527
6730.169789	0.090037	0.421137	7668.607422
6730.170777	0.089996	0.421137	7757.523926
6730.171772	0.090106	0.421137	7847.179687
6730.172655	0.089872	0.421137	7926.536621
6731.181563	1.118243	0.394912	532.283813
6731.182445	1.557576	0.394912	1906.065552
6731.183306	1.548138	0.394912	3239.012695
6731.184384	1.501846	0.394912	4858.002441
6731.185307	1.459966	0.394912	6205.550781
6731.186191	0.961904	0.394912	7055.874023
6731.187146	0.112610	0.394912	7163.416504
6731.188176	0.089985	0.394912	7256.101562
6731.189072	0.090103	0.394912	7336.833496
6731.189941	0.090004	0.394912	7415.046875
6731.191002	0.090018	0.394912	7510.556152
6731.191958	0.089989	0.394912	7596.585449
6731.192833	0.090018	0.394912	7675.351562
6731.193756	0.090029	0.394912	7758.448730
6731.194816	0.089938	0.394912	7853.782715
6731.195701	0.089978	0.394912	7933.413086
6732.185538	1.059910	0.419078	451.521484
6732.186439	1.552921	0.419078	1850.703369
6732.187524	1.540858	0.419078	3522.534424
6732.188481	1.498279	0.419078	4956.387207
6732.189347	1.459552	0.419078	6220.359375
6732.190397	0.720051	0.419078	6976.413086
6732.191423	0.092615	0.419078	7071.436035
6732.192306	0.090015	0.419078	7150.918945
6732.193235	0.089996	0.419078	7234.525391
6732.194296	0.089934	0.419078	7329.945312
6732.195217	0.089993	0.419078	7412.828613
6732.196086	0.090059	0.419078	7491.089355
6732.197121	0.090011	0.419078	7584.250488
6732.198132	0.089740	0.419078	7674.977539
6732.199027	0.090040	0.419078	7755.563477
6732.199989	0.090055	0.419078	7842.196289
6733.208505	1.052571	0.390993	444.184875
6733.209469	1.557206	0.390993	1945.331299
6733.210416	1.544366	0.390993	3407.846191
6733.211337	1.504069	0.390993	4793.093262
6733.212197	1.464104	0.390993	6052.222656
6733.213158	0.984488	0.390993	6998.315918
6733.214114	0.109519	0.390993	7103.016113
6733.215007	0.090070	0.390993	7183.448242
6733.215917	0.089912	0.390993	7265.268066
6733.216860	0.090125	0.390993	7350.255371
6733.217789	0.090150	0.390993	7434.004883
6733.218678	0.090033	0.390993	7514.043945
6733.219686	0.090062	0.390993	7604.826660
6733.220724	0.089945	0.390993	7698.189453
6733.221674	0.090022	0.390993	7783.710449
6733.222540	0.089996	0.390993	7861.647461
6734.213117	1.127703	0.415356	539.041870
6734.214019	1.558931	0.415356	1945.197266
6734.214908	1.546860	0.415356	3320.355957
6734.215835	1.505892	0.415356	4716.318359
6734.216791	1.463254	0.415356	6115.189453
6734.217723	0.995292	0.415356	7042.801270
6734.218585	0.118000	0.415356	7144.517578
6734.219554	0.089949	0.415356	7231.677734
6734.220501	0.089960	0.415356	7316.869629
6734.221393	0.090062	0.415356	7397.205078
6734.222261	0.089810	0.415356	7475.159668
6734.223222	0.089901	0.415356	7561.554687
6734.224157	0.089934	0.415356	7645.643066
6734.225054	0.090055	0.415356	7726.422363
6734.225966	0.089890	0.415356	7808.402344
6734.226922	0.089982	0.415356	7894.424805
6735.236105	1.114340	0.383351	548.255066
6735.237006	1.558923	0.383351	1952.844971
6735.237930	1.544821	0.383351	3380.259277
6735.238813	1.505314	0.383351	4709.451172
6735.239847	1.459537	0.383351	6218.612793
6735.240889	0.730939	0.383351	6980.250977
6735.241790	0.094834	0.383351	7065.696289
6735.242655	0.089949	0.383351	7143.501953
6735.243762	0.089971	0.383351	7243.099609
6735.244741	0.089971	0.383351	7331.181152
6735.245608	0.090015	0.383351	7409.223633
6735.246731	0.090055	0.383351	7510.355469
6735.247756	0.089912	0.383351	7602.515625
6735.248650	0.090026	0.383351	7682.998535
6735.249589	0.090011	0.383351	7767.519043
6735.250644	0.090084	0.383351	7862.558105
6736.240580	1.068637	0.410748	464.856903
6736.241453	1.554353	0.410748	1821.807129
6736.242367	1.548852	0.410748	3237.458252
6736.243326	1.507269	0.410748	4682.929687
6736.244244	1.465909	0.410748	6028.634766
6736.245110	1.138275	0.410748	7014.380859
6736.246088	0.133466	0.410748	7144.910156
6736.246994	0.089989	0.410748	7226.440430
6736.247902	0.089894	0.410748	7308.063965
6736.248776	0.089960	0.410748	7386.688965
6736.249869	0.089978	0.410748	7485.035156
6736.250918	0.089930	0.410748	7579.372070
6736.251805	0.089996	0.410748	7659.198730
6736.252708	0.090055	0.410748	7740.518555
6736.253794	0.090007	0.410748	7838.266602
6736.254747	0.089978	0.410748	7924.015625
6737.263103	1.105287	0.386827	533.853516
6737.263982	1.557876	0.386827	1903.226562
6737.264845	1.547893	0.386827	3239.058105
6737.265808	1.506416	0.386827	4689.736816
6737.266772	1.463503	0.386827	6100.554199
6737.267676	1.031532	0.386827	7033.059082
6737.268575	0.122292	0.386827	7143.000000
6737.269510	0.089854	0.386827	7227.013184
6737.270458	0.090084	0.386827	7312.413086
6737.271346	0.089985	0.386827	7392.320312
6737.272280	0.090055	0.386827	7476.431641
6737.273223	0.089949	0.386827	7561.253418
6737.274145	0.089963	0.386827	7644.199707
6737.275007	0.090000	0.386827	7721.779785
6737.275940	0.089956	0.386827	7805.708984
6737.276876	0.090092	0.386827	7890.034668
6738.267575	1.047975	0.402618	441.197388
6738.268532	1.556309	0.402618	1930.584717
6738.269471	1.545092	0.402618	3381.425781
6738.270368	1.505464	0.402618	4731.827148
6738.271241	1.465411	0.402618	6011.131348
6738.272217	1.012035	0.402618	6998.877441
6738.273163	0.113998	0.402618	7106.719238
6738.274059	0.089967	0.402618	7187.329590
6738.274990	0.089897	0.402618	7271.023926
6738.275948	0.089982	0.402618	7357.226562
6738.276848	0.089989	0.402618	7438.216797
6738.277726	0.089905	0.402618	7517.153320
6738.278652	0.089960	0.402618	7600.456055
6738.279617	0.089996	0.402618	7687.302734
6738.280544	0.089824	0.402618	7770.569824
6738.281408	0.089766	0.402618	7848.127441
6739.290555	1.052732	0.387403	446.358307
6739.291466	1.555338	0.387403	1863.271362
6739.292426	1.545714	0.387403	3347.156982
6739.293352	1.505255	0.387403	4741.023437
6739.294223	1.465455	0.387403	6017.435059
6739.295200	1.013284	0.387403	7007.413086
6739.296153	0.112811	0.387403	7114.922363
6739.297048	0.089996	0.387403	7195.469238
6739.297966	0.090051	0.387403	7278.136230
6739.298895	0.090099	0.387403	7361.837891
6739.299806	0.090015	0.387403	7443.841309
6739.300701	0.090018	0.387403	7524.407715
6739.301611	0.089912	0.387403	7606.227539
6739.302567	0.089908	0.387403	7692.180176
6739.303480	0.089908	0.387403	7774.266602
6739.304351	0.090007	0.387403	7852.663086
6740.295138	1.074100	0.398219	498.382507
6740.296030	1.557220	0.398219	1887.423096
6740.296896	1.548541	0.398219	3228.459717
6740.297868	1.507277	0.398219	4693.532715
6740.298796	1.464247	0.398219	6052.353516
6740.299731	1.036860	0.398219	7021.817871
6740.300589	0.124618	0.398219	7128.740234
6740.301533	0.089886	0.398219	7213.593262
6740.302482	0.089952	0.398219	7298.958008
6740.303381	0.090040	0.398219	7379.904297
6740.304292	0.089996	0.398219	7461.891113
6740.305246	0.089960	0.398219	7547.712891
6740.306164	0.089886	0.398219	7630.228516
6740.307036	0.090110	0.398219	7708.804199
6740.308028	0.090095	0.398219	7798.178711
6740.308959	0.090018	0.398219	7881.985840
6741.318084	1.062334	0.371109	461.052979
6741.318998	1.556539	0.371109	1883.729858
6741.319868	1.548677	0.371109	3231.078613
6741.320879	1.505083	0.371109	4752.717773
6741.321806	1.463485	0.371109	6109.368652
6741.322699	1.049714	0.371109	7046.763672
6741.323558	0.126888	0.371109	7155.760742
6741.324520	0.089835	0.371109	7242.182129
6741.325460	0.089974	0.371109	7326.757812
6741.326351	0.090007	0.371109	7406.954102
6741.327265	0.089945	0.371109	7489.164062
6741.328224	0.089949	0.371109	7575.424805
6741.329143	0.089938	0.371109	7658.077637
6741.330018	0.089989	0.371109	7736.817871
6741.330994	0.089930	0.371109	7824.589844
6741.331919	0.089930	0.371109	7907.775391
6742.322113	1.059694	0.391674	454.608582
6742.323045	1.552907	0.391674	1901.917480
6742.324031	1.544096	0.391674	3424.395508
6742.324951	1.503406	0.391674	4807.528809
6742.325842	1.463071	0.391674	6111.125488
6742.326908	0.819456	0.391674	6984.665039
6742.327821	0.098877	0.391674	7074.939453
6742.328708	0.089930	0.391674	7154.707520
6742.329582	0.089872	0.391674	7233.255371
6742.330621	0.090066	0.391674	7326.833984
6742.331502	0.089927	0.391674	7406.059570
6742.332409	0.090022	0.391674	7487.709473
6742.333287	0.089982	0.391674	7566.713379
6742.334266	0.090103	0.391674	7654.923828
6742.335188	0.090099	0.391674	7737.995117
6742.336059	0.089905	0.391674	7816.302246
6743.346248	1.192485	0.361606	674.946716
6743.347227	1.563450	0.361606	2205.563965
6743.348150	1.538859	0.361606	3625.930664
6743.349016	1.498162	0.361606	4923.338867
6743.350135	1.451323	0.361606	6547.369629
6743.351046	0.601022	0.361606	7094.900391
6743.351920	0.093241	0.361606	7176.393066
6743.352793	0.089982	0.361606	7254.947266
6743.353831	0.089897	0.361606	7348.260742
6743.354713	0.089963	0.361606	7427.608398
6743.355582	0.090029	0.361606	7505.843750
6743.356574	0.089989	0.361606	7595.112793
6743.357488	0.089963	0.361606	7677.339355
6743.358403	0.090066	0.361606	7759.749512
6743.359276	0.089941	0.361606	7838.268555
6743.360314	0.089982	0.361606	7931.669434
6744.348680	1.095703	0.401962	551.138672
6744.349734	1.561348	0.401962	2196.799316
6744.350671	1.537647	0.401962	3637.574219
6744.351551	1.498173	0.401962	4955.966309
6744.352511	1.456318	0.401962	6354.032227
6744.353540	0.621654	0.401962	6993.714355
6744.354429	0.093281	0.401962	7076.641602
6744.355286	0.089916	0.401962	7153.699219
6744.356316	0.089960	0.401962	7246.357910
6744.357267	0.090015	0.401962	7331.961914
6744.358142	0.090026	0.401962	7410.734375
6744.359072	0.090059	0.401962	7494.488770
6744.360123	0.090015	0.401962	7589.094238
6744.361011	0.090059	0.401962	7669.066406
6744.361879	0.089967	0.401962	7747.157715
6744.362923	0.090059	0.401962	7841.178711
6745.372694	1.136836	0.375572	571.828491
6745.373688	1.562369	0.375572	2124.823730
6745.374568	1.542455	0.375572	3482.184082
6745.375581	1.497792	0.375572	4999.447266
6745.376640	1.451580	0.375572	6536.669922
6745.377527	0.629279	0.375572	7094.839844
6745.378406	0.094189	0.375572	7177.632324
6745.379504	0.090022	0.375572	7276.476562
6745.380445	0.089908	0.375572	7361.080566
6745.381313	0.090004	0.375572	7439.203613
6745.382321	0.090095	0.375572	7530.019531
6745.383370	0.089982	0.375572	7624.410156
6745.384254	0.090066	0.375572	7704.028320
6745.385153	0.090007	0.375572	7784.944824
6745.386236	0.090095	0.375572	7882.518066
6745.387180	0.089996	0.375572	7967.474609
