time (s)	coil I (A)	last det (V)	int current (uC)
8864.448049	1.164818	0.282840	603.375793
8864.448932	1.562333	0.282840	1982.915527
8864.449834	1.545758	0.282840	3377.189209
8864.450941	0.577496	0.282840	4016.477539
8864.451893	0.091399	0.282840	4103.489258
8864.452763	0.089905	0.282840	4181.706543
8864.453805	0.090066	0.282840	4275.555176
8864.454826	0.089879	0.282840	4367.321777
8864.455718	0.090051	0.282840	4447.647461
8864.456662	0.089978	0.282840	4532.586914
8864.457716	0.089908	0.282840	4627.350586
8864.458649	0.089912	0.282840	4711.238770
8864.459516	0.090092	0.282840	4789.348145
8864.460556	0.089952	0.282840	4882.898437
8865.443320	1.103676	0.295816	520.934875
8865.444210	1.559326	0.295816	1908.735107
8865.445074	1.550145	0.295816	3248.060547
8865.446057	0.891804	0.295816	4124.704102
8865.446973	0.099342	0.295816	4215.701172
8865.447880	0.089894	0.295816	4297.234863
8865.448759	0.090088	0.295816	4376.421875
8865.449727	0.089949	0.295816	4463.492187
8865.450671	0.090040	0.295816	4548.490234
8865.451563	0.090084	0.295816	4628.845215
8865.452477	0.089985	0.295816	4711.091797
8865.453435	0.089941	0.295816	4797.255859
8865.454361	0.090150	0.295816	4880.734863
8865.455224	0.090004	0.295816	4958.408203
8866.475518	1.144017	0.272274	565.144592
8866.476488	1.562241	0.272274	2080.518555
8866.477420	1.544546	0.272274	3520.035156
8866.478291	0.779388	0.272274	4198.882324
8866.479268	0.095596	0.272274	4292.279297
8866.480210	0.089938	0.272274	4377.000488
8866.481106	0.090033	0.272274	4457.669922
8866.481967	0.090040	0.272274	4535.194824
8866.482930	0.089938	0.272274	4621.804687
8866.483885	0.090015	0.272274	4707.768555
8866.484775	0.089967	0.272274	4787.839355
8866.485683	0.089908	0.272274	4869.476074
8866.486640	0.090059	0.272274	4955.662109
8866.487563	0.090048	0.272274	5038.775879
8867.470773	1.066681	0.289366	446.939301
8867.471748	1.561036	0.289366	1968.949829
8867.472677	1.547058	0.289366	3406.166992
8867.473563	0.876833	0.289366	4183.041504
8867.474504	0.102982	0.289366	4279.947754
8867.475453	0.089839	0.289366	4365.205078
8867.476377	0.089963	0.289366	4448.331055
8867.477243	0.089982	0.289366	4526.255371
8867.478225	0.090077	0.289366	4614.710937
8867.479160	0.089978	0.289366	4698.840332
8867.480064	0.089934	0.289366	4780.140625
8867.480944	0.089993	0.289366	4859.333984
8867.481907	0.089960	0.289366	4945.965332
8867.482858	0.090033	0.289366	5031.586914
8868.505030	1.069248	0.268338	461.915161
8868.505902	1.556140	0.268338	1818.869263
8868.506765	1.551672	0.268338	3157.962402
8868.507830	0.831790	0.268338	4043.818359
8868.508731	0.098698	0.268338	4132.744629
8868.509606	0.089817	0.268338	4211.334473
8868.510575	0.090015	0.268338	4298.558594
8868.511539	0.089850	0.268338	4385.173828
8868.512462	0.089934	0.268338	4468.183105
8868.513328	0.090011	0.268338	4546.132812
8868.514351	0.089861	0.268338	4638.060547
8868.515235	0.089897	0.268338	4717.529785
8868.516099	0.089967	0.268338	4795.261230
8868.517011	0.090077	0.268338	4877.411133
8869.500451	1.152136	0.286458	592.197998
8869.501403	1.563721	0.286458	2080.860107
8869.502270	1.546110	0.286458	3421.336914
8869.503338	0.597675	0.286458	4059.653320
8869.504352	0.091014	0.286458	4151.941895
8869.505235	0.089956	0.286458	4231.373047
8869.506196	0.089938	0.286458	4317.803223
8869.507233	0.089908	0.286458	4411.038086
8869.508165	0.089864	0.286458	4494.791992
8869.509023	0.089960	0.286458	4571.977539
8869.510059	0.089985	0.286458	4665.202148
8869.511068	0.089971	0.286458	4755.982422
8869.511954	0.089938	0.286458	4835.667480
8869.512914	0.090022	0.286458	4922.088379
8870.530589	1.142926	0.274957	587.463928
8870.531502	1.562618	0.274957	2014.134521
8870.532368	1.546901	0.274957	3353.750488
8870.533456	0.630421	0.274957	4039.648682
8870.534447	0.091234	0.274957	4130.061523
8870.535323	0.089956	0.274957	4208.862793
8870.536331	0.089982	0.274957	4299.564453
8870.537359	0.089971	0.274957	4392.054199
8870.538252	0.090018	0.274957	4472.440430
8870.539110	0.089956	0.274957	4549.622559
8870.540184	0.090015	0.274957	4646.298340
8870.541151	0.089919	0.274957	4733.250488
8870.542033	0.089963	0.274957	4812.598145
8870.543029	0.090070	0.274957	4902.307617
8871.525863	1.096553	0.293250	506.607361
8871.526756	1.559249	0.293250	1899.017090
8871.527623	1.550167	0.293250	3243.012207
8871.528608	0.875988	0.293250	4105.859863
8871.529568	0.098119	0.293250	4200.054199
8871.530463	0.089912	0.293250	4280.525391
8871.531348	0.089883	0.293250	4360.071777
8871.532286	0.090048	0.293250	4444.536621
8871.533234	0.089974	0.293250	4529.832520
8871.534107	0.089945	0.293250	4608.354492
8871.535018	0.089843	0.293250	4690.201172
8871.535968	0.089795	0.293250	4775.506348
8871.536889	0.089868	0.293250	4858.274902
8871.537762	0.090000	0.293250	4936.844727
8872.556985	1.048605	0.268540	440.413971
8872.557910	1.556422	0.268540	1880.104370
8872.558861	1.548032	0.268540	3352.282959
8872.559788	0.854707	0.268540	4144.596680
8872.560656	0.101327	0.268540	4232.548340
8872.561623	0.089886	0.268540	4319.468750
8872.562543	0.089908	0.268540	4402.184570
8872.563456	0.090044	0.268540	4484.394531
8872.564315	0.089963	0.268540	4561.672852
8872.565281	0.089993	0.268540	4648.605957
8872.566204	0.089905	0.268540	4731.587891
8872.567097	0.089971	0.268540	4811.931641
8872.568010	0.089963	0.268540	4894.068359
8872.568958	0.090051	0.268540	4979.437012
8873.555409	1.073676	0.277583	467.048859
8873.556276	1.555594	0.277583	1815.749268
8873.557320	1.545894	0.277583	3429.662109
8873.558205	0.829354	0.277583	4163.640625
8873.559069	0.100840	0.277583	4250.766113
8873.560050	0.089843	0.277583	4338.901855
8873.560992	0.089982	0.277583	4423.664551
8873.561912	0.089927	0.277583	4506.396973
8873.562787	0.089923	0.277583	4585.079590
8873.563801	0.089908	0.277583	4676.246582
8873.564695	0.089912	0.277583	4756.627930
8873.565613	0.089894	0.277583	4839.150391
8873.566488	0.090007	0.277583	4917.906738
8873.567478	0.089864	0.277583	5006.872559
8874.584515	1.069329	0.267319	463.019257
8874.585386	1.555715	0.267319	1818.047363
8874.586414	1.546846	0.267319	3408.204590
8874.587407	0.706776	0.267319	4110.033203
8874.588300	0.094980	0.267319	4194.850586
8874.589160	0.089963	0.267319	4272.219238
8874.590251	0.089996	0.267319	4370.405273
8874.591153	0.089875	0.267319	4451.473145
8874.592021	0.089956	0.267319	4529.555176
8874.593009	0.090007	0.267319	4618.482422
8874.594000	0.090048	0.267319	4707.719727
8874.594887	0.089930	0.267319	4787.487793
8874.595747	0.090092	0.267319	4864.966309
8874.596839	0.089861	0.267319	4963.094238
8875.583955	1.079557	0.279763	482.561890
8875.584828	1.556726	0.279763	1841.583740
8875.585827	1.546791	0.279763	3386.827637
8875.586900	0.638760	0.279763	4072.216797
8875.587772	0.092992	0.279763	4153.305664
8875.588639	0.090059	0.279763	4231.386230
8875.589753	0.089941	0.279763	4331.581055
8875.590717	0.090033	0.279763	4418.373047
8875.591585	0.089989	0.279763	4496.483398
8875.592612	0.089963	0.279763	4588.875977
8875.593647	0.090059	0.279763	4682.086426
8875.594538	0.090015	0.279763	4762.289551
8875.595453	0.089960	0.279763	4844.602539
8875.596514	0.090044	0.279763	4940.139160
8876.611060	1.081267	0.266767	520.089417
8876.611993	1.560502	0.266767	1976.037598
8876.612916	1.546798	0.266767	3403.732422
8876.613786	0.874706	0.266767	4164.726562
8876.614763	0.095687	0.266767	4258.212891
8876.615723	0.089861	0.266767	4344.479492
8876.616640	0.089952	0.266767	4426.965820
8876.617512	0.090029	0.266767	4505.471191
8876.618481	0.089956	0.266767	4592.638672
8876.619435	0.089945	0.266767	4678.446289
8876.620326	0.090004	0.266767	4758.639648
8876.621212	0.089934	0.266767	4838.321289
8876.622143	0.089919	0.266767	4922.036133
8876.623077	0.089934	0.266767	5006.034668
8877.614539	1.073584	0.255581	464.861847
8877.615416	1.556298	0.255581	1829.734863
8877.616281	1.551665	0.255581	3171.925293
8877.617295	0.910115	0.255581	4094.781738
8877.618226	0.100049	0.255581	4187.927246
8877.619100	0.089905	0.255581	4266.503906
8877.619994	0.089747	0.255581	4346.737793
8877.620932	0.089886	0.255581	4431.051270
8877.621876	0.090037	0.255581	4516.045898
8877.622746	0.089945	0.255581	4594.298340
8877.623654	0.089868	0.255581	4675.898437
8877.624604	0.089868	0.255581	4761.273437
8877.625527	0.090015	0.255581	4844.356934
8877.626404	0.089974	0.255581	4923.264648
8878.636551	1.121382	0.266784	560.690918
8878.637451	1.561589	0.266784	1966.121338
8878.638328	1.548640	0.266784	3324.278809
8878.639324	0.782758	0.266784	4103.905273
8878.640313	0.093289	0.266784	4196.167480
8878.641204	0.089978	0.266784	4276.337891
8878.642065	0.089773	0.266784	4353.632324
8878.643153	0.089960	0.266784	4451.508301
8878.644055	0.089861	0.266784	4532.562988
8878.644924	0.090015	0.266784	4610.785645
8878.645934	0.090073	0.266784	4701.759766
8878.646926	0.089934	0.266784	4790.974609
8878.647798	0.089945	0.266784	4869.406738
8878.648676	0.089989	0.266784	4948.416992
8879.644111	1.078542	0.253055	467.008881
8879.645031	1.555624	0.253055	1898.182739
8879.646091	1.542664	0.253055	3533.406250
8879.647052	0.614099	0.253055	4123.555664
8879.647915	0.093611	0.253055	4204.341797
8879.648957	0.089956	0.253055	4298.076172
8879.649983	0.089971	0.253055	4390.386230
8879.650866	0.089956	0.253055	4469.817383
8879.651815	0.089949	0.253055	4555.178711
8879.652884	0.089861	0.253055	4651.239746
8879.653802	0.089868	0.253055	4733.738770
8879.654660	0.089978	0.253055	4810.939941
8879.655681	0.089985	0.253055	4902.814941
8879.656699	0.089971	0.253055	4994.405273
8880.662008	1.099039	0.281576	516.548462
8880.662904	1.559041	0.281576	1913.448853
8880.663771	1.549655	0.281576	3256.999512
8880.664762	0.871461	0.281576	4120.617676
8880.665672	0.098969	0.281576	4210.679199
8880.666572	0.089769	0.281576	4291.471680
8880.667445	0.089949	0.281576	4369.997070
8880.668410	0.090048	0.281576	4456.893066
8880.669364	0.089908	0.281576	4542.665527
8880.670255	0.089934	0.281576	4622.796875
8880.671163	0.089956	0.281576	4704.477051
8880.672115	0.089868	0.281576	4790.031738
8880.673034	0.089854	0.281576	4872.606934
8880.673897	0.090037	0.281576	4950.308594
8881.671645	1.089994	0.254437	490.497284
8881.672517	1.557620	0.254437	1848.741577
8881.673435	1.549618	0.254437	3271.290771
8881.674394	0.868993	0.254437	4104.654785
8881.675328	0.098635	0.254437	4196.780273
8881.676205	0.089901	0.254437	4275.623535
8881.677170	0.090022	0.254437	4362.494629
8881.678090	0.089985	0.254437	4445.281250
8881.679010	0.089956	0.254437	4528.041016
8881.679875	0.089949	0.254437	4605.846680
8881.680844	0.089857	0.254437	4692.918457
8881.681793	0.089971	0.254437	4778.300781
8881.682677	0.089978	0.254437	4857.841309
8881.683584	0.089923	0.254437	4939.401367
8882.688444	1.057647	0.268479	448.442108
8882.689328	1.554496	0.268479	1822.616455
8882.690311	1.547421	0.268479	3343.730957
8882.691249	0.838590	0.268479	4130.328613
8882.692133	0.100001	0.268479	4218.729492
8882.693069	0.089821	0.268479	4302.801758
8882.694012	0.089883	0.268479	4387.561035
8882.694939	0.089901	0.268479	4470.899414
8882.695806	0.089861	0.268479	4548.808594
8882.696765	0.089916	0.268479	4635.037598
8882.697663	0.089864	0.268479	4715.735840
8882.698583	0.089934	0.268479	4798.475098
8882.699458	0.089971	0.268479	4877.199707
8882.700423	0.089894	0.268479	4963.947266
8883.701176	1.046634	0.244483	439.586456
8883.702065	1.554122	0.244483	1821.201172
8883.703117	1.545293	0.244483	3446.849365
8883.704018	0.787643	0.244483	4156.515625
8883.704896	0.098470	0.244483	4242.972656
8883.705903	0.090018	0.244483	4333.621094
8883.706830	0.089934	0.244483	4416.990234
8883.707749	0.089989	0.244483	4499.689941
8883.708608	0.089791	0.244483	4576.820801
8883.709636	0.090007	0.244483	4669.348145
8883.710522	0.089949	0.244483	4749.042969
8883.711392	0.089960	0.244483	4827.308105
8883.712340	0.090037	0.244483	4912.662598
8883.713287	0.089879	0.244483	4997.778320
8884.715000	1.090444	0.280637	528.865479
8884.716056	1.563867	0.280637	2180.309082
8884.716946	1.542557	0.280637	3553.185059
8884.717815	0.726522	0.280637	4184.532715
8884.718853	0.093237	0.280637	4281.312988
8884.719809	0.089956	0.280637	4367.311035
8884.720681	0.090004	0.280637	4445.794434
8884.721559	0.089963	0.280637	4524.782227
8884.722671	0.089901	0.280637	4624.752441
8884.723544	0.089993	0.280637	4703.315918
8884.724409	0.090011	0.280637	4781.175293
8884.725446	0.090062	0.280637	4874.569824
8884.726408	0.090007	0.280637	4961.156738
8884.727331	0.089930	0.280637	5044.162598
8885.728813	1.157644	0.261937	606.605469
8885.729760	1.563992	0.261937	2087.705566
8885.730625	1.545879	0.261937	3424.890625
8885.731674	0.626495	0.261937	4082.084229
8885.732700	0.091245	0.261937	4175.701660
8885.733580	0.089938	0.261937	4254.846680
8885.734517	0.090059	0.261937	4339.231445
8885.735575	0.090125	0.261937	4434.583008
8885.736509	0.089993	0.261937	4518.636230
8885.737367	0.090088	0.261937	4595.931641
8885.738393	0.090026	0.261937	4688.297852
8885.739404	0.089971	0.261937	4779.258301
8885.740295	0.090081	0.261937	4859.520020
8885.741256	0.090000	0.261937	4946.010254
8886.739410	1.075931	0.293282	473.409790
8886.740281	1.556312	0.293282	1828.957764
8886.741342	1.543960	0.293282	3467.099121
8886.742404	0.551682	0.293282	4052.985596
8886.743308	0.091509	0.293282	4135.709473
8886.744173	0.090018	0.293282	4213.575195
8886.745275	0.090018	0.293282	4312.775391
8886.746242	0.090026	0.293282	4399.830078
8886.747107	0.089949	0.293282	4477.635742
8886.748141	0.089996	0.293282	4570.691895
8886.749182	0.089941	0.293282	4664.320801
8886.750078	0.089982	0.293282	4744.944336
8886.750989	0.090048	0.293282	4826.977539
8886.752078	0.090033	0.293282	4925.023437
8887.757311	1.109780	0.255194	533.804321
8887.758237	1.561370	0.255194	1979.632568
8887.759126	1.547465	0.255194	3355.328613
8887.760050	0.865214	0.255194	4154.786133
8887.760994	0.097299	0.255194	4246.636230
8887.761927	0.089832	0.255194	4330.449219
8887.762816	0.089963	0.255194	4410.426758
8887.763750	0.089886	0.255194	4494.380859
8887.764694	0.089952	0.255194	4579.295898
8887.765620	0.089952	0.255194	4662.591797
8887.766485	0.089886	0.255194	4740.343750
8887.767419	0.089919	0.255194	4824.328613
8887.768370	0.090011	0.255194	4909.929199
8887.769253	0.089905	0.255194	4989.314941
8888.763884	1.083281	0.298019	502.642517
8888.764776	1.558986	0.298019	1893.257568
8888.765643	1.550328	0.298019	3237.392090
8888.766614	0.898916	0.298019	4110.239258
8888.767545	0.099994	0.298019	4203.333496
8888.768467	0.089916	0.298019	4286.235840
8888.769327	0.089744	0.298019	4363.415527
8888.770298	0.089890	0.298019	4450.698730
8888.771204	0.090011	0.298019	4532.248535
8888.772085	0.089897	0.298019	4611.448242
8888.773025	0.090095	0.298019	4696.137695
8888.773963	0.089949	0.298019	4780.509766
8888.774859	0.090011	0.298019	4861.159668
8888.775724	0.089864	0.298019	4938.892578
8889.783742	1.058379	0.270461	449.811005
8889.784613	1.555173	0.270461	1804.366943
8889.785586	1.549651	0.270461	3312.177246
8889.786494	0.925118	0.270461	4152.184570
8889.787411	0.103726	0.270461	4247.300781
8889.788275	0.089886	0.270461	4324.962891
8889.789226	0.089773	0.270461	4410.336914
8889.790148	0.090143	0.270461	4493.448730
8889.791071	0.090040	0.270461	4576.555664
8889.791950	0.090018	0.270461	4655.681641
8889.792908	0.089927	0.270461	4741.831543
8889.793850	0.090000	0.270461	4826.611328
8889.794746	0.089938	0.270461	4907.195312
8889.795654	0.089963	0.270461	4988.881836
8890.791495	1.189365	0.301939	669.612671
8890.792464	1.564526	0.301939	2185.638672
8890.793394	1.540928	0.301939	3618.701660
8890.794262	0.661088	0.301939	4192.525879
8890.795346	0.091542	0.301939	4291.757324
8890.796253	0.089817	0.301939	4373.221191
8890.797111	0.090011	0.301939	4450.450684
8890.798110	0.090007	0.301939	4540.368164
8890.799113	0.089883	0.301939	4630.520508
8890.799998	0.090000	0.301939	4710.170410
8890.800859	0.089956	0.301939	4787.622559
8890.801951	0.090055	0.301939	4885.962402
8890.802854	0.089868	0.301939	4967.113281
8890.803730	0.089949	0.301939	5045.908203
8891.813312	1.059049	0.259275	452.213928
8891.814343	1.559487	0.259275	2060.045166
8891.815385	1.539642	0.259275	3664.352539
8891.816274	0.594639	0.259275	4192.986328
8891.817207	0.093431	0.259275	4280.157715
8891.818274	0.090033	0.259275	4376.222656
8891.819212	0.090044	0.259275	4460.684082
8891.820070	0.090015	0.259275	4537.916504
8891.821091	0.090077	0.259275	4629.885254
8891.822129	0.089791	0.259275	4723.088379
8891.823021	0.089982	0.259275	4803.352051
8891.823972	0.090015	0.259275	4888.956055
8891.825023	0.089945	0.259275	4983.488281
8891.825952	0.090059	0.259275	5067.152832
8892.816845	1.091942	0.306809	471.719025
8892.817776	1.559330	0.306809	1923.454956
8892.818658	1.549475	0.306809	3290.091797
8892.819577	0.916582	0.306809	4132.430664
8892.820539	0.100393	0.306809	4229.008789
8892.821459	0.090000	0.306809	4311.808594
8892.822322	0.089971	0.306809	4389.453125
8892.823291	0.090011	0.306809	4476.673828
8892.824237	0.089908	0.306809	4561.727051
8892.825131	0.090004	0.306809	4642.190430
8892.826039	0.089923	0.306809	4723.840820
8892.826965	0.089850	0.306809	4807.041992
8892.827908	0.090000	0.306809	4891.912109
8892.828793	0.089971	0.306809	4971.536133
8893.840823	1.049231	0.260109	440.677002
8893.841775	1.554935	0.260109	1920.975464
8893.842679	1.548549	0.260109	3320.863281
8893.843600	0.903098	0.260109	4152.616699
8893.844465	0.104696	0.260109	4243.178711
8893.845463	0.089806	0.260109	4332.805176
8893.846417	0.090055	0.260109	4418.717773
8893.847345	0.090048	0.260109	4502.281738
8893.848205	0.090048	0.260109	4579.722656
8893.849173	0.090066	0.260109	4666.906250
8893.850099	0.090015	0.260109	4750.259766
8893.850989	0.090051	0.260109	4830.405273
8893.851879	0.089985	0.260109	4910.492187
8893.852821	0.089916	0.260109	4995.192871
8894.844401	1.081498	0.309125	518.037415
8894.845400	1.563080	0.309125	2079.554199
8894.846286	1.544777	0.309125	3448.226074
8894.847163	0.827523	0.309125	4173.963867
8894.848183	0.098086	0.309125	4274.011719
8894.849071	0.089857	0.309125	4353.804687
8894.849989	0.089989	0.309125	4436.414551
8894.850867	0.089974	0.309125	4515.412109
8894.851895	0.089773	0.309125	4607.698730
8894.852782	0.089883	0.309125	4687.424805
8894.853657	0.089952	0.309125	4766.133301
8894.854628	0.089967	0.309125	4853.491211
8894.855577	0.089945	0.309125	4938.849121
8894.856499	0.089879	0.309125	5021.717773
8895.867425	1.126915	0.263706	593.884399
8895.868456	1.564515	0.263706	2206.899902
8895.869335	1.541851	0.263706	3562.186523
8895.870201	0.713881	0.263706	4180.407227
8895.871264	0.092424	0.263706	4278.654297
8895.872181	0.089777	0.263706	4360.979492
8895.873047	0.089941	0.263706	4438.868652
8895.873997	0.090059	0.263706	4524.424316
8895.875024	0.089978	0.263706	4616.831543
8895.875921	0.089982	0.263706	4697.544922
8895.876785	0.089930	0.263706	4775.244629
8895.877820	0.090015	0.263706	4868.409668
8895.878764	0.089938	0.263706	4953.311035
8895.879640	0.089923	0.263706	5032.083496
8896.871874	1.068582	0.304517	458.421509
8896.872754	1.555770	0.304517	1827.499268
8896.873753	1.546963	0.304517	3372.915039
8896.874809	0.659883	0.304517	4069.751221
8896.875699	0.093248	0.304517	4152.742187
8896.876593	0.089828	0.304517	4233.048340
8896.877662	0.089982	0.304517	4329.238770
8896.878617	0.089850	0.304517	4415.045410
8896.879487	0.089967	0.304517	4493.316895
8896.880524	0.089993	0.304517	4586.639160
8896.881547	0.089938	0.304517	4678.645508
8896.882428	0.089967	0.304517	4757.906250
8896.883352	0.090015	0.304517	4841.079590
8896.884403	0.089941	0.304517	4935.607910
8897.895899	1.073467	0.254171	490.574310
8897.896852	1.561359	0.254171	1978.549072
8897.897775	1.545992	0.254171	3405.500000
8897.898658	0.866316	0.254171	4170.457031
8897.899587	0.100269	0.254171	4263.606445
8897.900548	0.089821	0.254171	4349.923828
8897.901469	0.089960	0.254171	4432.776855
8897.902331	0.089982	0.254171	4510.341309
8897.903309	0.089927	0.254171	4598.289551
8897.904202	0.089879	0.254171	4678.551758
8897.905116	0.090015	0.254171	4760.825195
8897.905990	0.089967	0.254171	4839.456543
8897.907080	0.090007	0.254171	4937.564453
8897.908097	0.090007	0.254171	5029.102051
8898.900449	1.093964	0.290893	495.565521
8898.901342	1.557975	0.290893	1886.837036
8898.902286	1.547933	0.290893	3348.085937
8898.903237	0.825795	0.290893	4133.416504
8898.904154	0.098232	0.290893	4223.495605
8898.905016	0.089868	0.290893	4300.961914
8898.905967	0.089934	0.290893	4386.489258
8898.906888	0.089890	0.290893	4469.278320
8898.907804	0.089971	0.290893	4551.691406
8898.908666	0.089828	0.290893	4629.123047
8898.909645	0.089835	0.290893	4717.071777
8898.910580	0.089938	0.290893	4801.163574
8898.911472	0.089890	0.290893	4881.345703
8898.912388	0.090015	0.290893	4963.799316
8899.923392	1.056526	0.248567	449.023529
8899.924291	1.554206	0.248567	1846.255249
8899.925258	1.547637	0.248567	3342.819824
8899.926188	0.858007	0.248567	4140.766113
8899.927055	0.101565	0.248567	4228.822754
8899.928008	0.089854	0.248567	4314.453125
8899.928931	0.089897	0.248567	4397.428711
8899.929849	0.089971	0.248567	4480.021973
8899.930726	0.089993	0.248567	4558.945312
8899.931705	0.089927	0.248567	4646.983398
8899.932648	0.089930	0.248567	4731.787598
8899.933563	0.089916	0.248567	4814.060547
8899.934428	0.089846	0.248567	4891.777344
8899.935389	0.089890	0.248567	4978.161621
8900.926905	1.069208	0.292190	453.344116
8900.927946	1.562249	0.292190	2079.645020
8900.928849	1.544341	0.292190	3474.184814
8900.929732	0.809777	0.292190	4189.217773
8900.930715	0.098954	0.292190	4286.489258
8900.931661	0.089864	0.292190	4371.500977
8900.932576	0.089923	0.292190	4453.780762
8900.933439	0.089894	0.292190	4531.358887
8900.934470	0.089996	0.292190	4624.145020
8900.935355	0.089956	0.292190	4703.756348
8900.936231	0.090018	0.292190	4782.612305
8900.937160	0.090029	0.292190	4866.249512
8900.938154	0.089854	0.292190	4955.563965
8900.939056	0.089982	0.292190	5036.727539
8901.949956	1.100640	0.248495	547.017944
8901.951014	1.563783	0.248495	2201.500244
8901.951916	1.540935	0.248495	3591.423828
8901.952790	0.678468	0.248495	4184.404785
8901.953807	0.092655	0.248495	4278.634766
8901.954768	0.089817	0.248495	4364.948730
8901.955645	0.089934	0.248495	4443.820801
8901.956533	0.089868	0.248495	4523.623535
8901.957617	0.089850	0.248495	4621.020996
8901.958503	0.089985	0.248495	4700.748047
8901.959367	0.090040	0.248495	4778.542969
8901.960422	0.089967	0.248495	4873.458008
8901.961385	0.089960	0.248495	4960.089355
8901.962253	0.090007	0.248495	5038.215820
8902.955457	1.060148	0.277922	453.743256
8902.956480	1.558575	0.277922	2048.165771
8902.957525	1.539965	0.277922	3657.428711
8902.958418	0.585106	0.277922	4179.928711
8902.959299	0.093497	0.277922	4262.299805
8902.960380	0.090007	0.277922	4359.597656
8902.961340	0.090103	0.277922	4446.096191
8902.962201	0.089952	0.277922	4523.545410
8902.963231	0.090037	0.277922	4616.283203
8902.964262	0.089993	0.277922	4709.065430
8902.965140	0.090029	0.277922	4788.111328
8902.966062	0.089934	0.277922	4871.030762
8902.967137	0.090132	0.277922	4967.922363
8902.968076	0.089993	0.277922	5052.425293
8903.977433	1.095919	0.243125	486.588104
8903.978296	1.556235	0.243125	1829.619263
8903.979277	1.547673	0.243125	3347.886719
8903.980220	0.831595	0.243125	4132.081055
8903.981100	0.099880	0.243125	4219.975586
8903.982011	0.089857	0.243125	4301.835449
8903.982956	0.089875	0.243125	4386.767578
8903.983881	0.090033	0.243125	4470.047852
8903.984759	0.089971	0.243125	4549.041992
8903.985700	0.090007	0.243125	4633.738770
8903.986633	0.089963	0.243125	4717.674805
8903.987556	0.089967	0.243125	4800.714355
8903.988416	0.089985	0.243125	4878.101562
8903.989378	0.089985	0.243125	4964.667480
8904.982985	1.063832	0.276475	461.703003
8904.983846	1.554679	0.276475	1800.281494
8904.984816	1.548428	0.276475	3302.256348
8904.985777	0.840802	0.276475	4110.267090
8904.986672	0.099115	0.276475	4198.975098
8904.987584	0.089989	0.276475	4281.044922
8904.988520	0.090062	0.276475	4365.343262
8904.989449	0.089901	0.276475	4448.861328
8904.990340	0.090004	0.276475	4529.054687
8904.991261	0.090015	0.276475	4611.958008
8904.992207	0.090048	0.276475	4697.143066
8904.993127	0.090018	0.276475	4779.959961
8904.993992	0.090044	0.276475	4857.848145
8904.994927	0.090018	0.276475	4942.015137
8906.005957	1.066315	0.231366	460.647949
8906.006816	1.554547	0.231366	1796.003906
8906.007811	1.547347	0.231366	3335.614746
8906.008749	0.841619	0.231366	4125.053223
8906.009636	0.099734	0.231366	4213.517090
8906.010576	0.089941	0.231366	4298.062012
8906.011502	0.090000	0.231366	4381.401855
8906.012438	0.090081	0.231366	4465.717285
8906.013323	0.089978	0.231366	4545.347656
8906.014257	0.090026	0.231366	4629.431641
8906.015206	0.090088	0.231366	4714.924805
8906.016123	0.089927	0.231366	4797.387695
8906.016986	0.089941	0.231366	4875.007324
8906.017934	0.090139	0.231366	4960.459473
8907.010548	1.104415	0.270502	526.806091
8907.011435	1.559037	0.270502	1909.671875
8907.012299	1.550207	0.270502	3249.051270
8907.013354	0.767677	0.270502	4058.950439
8907.014298	0.094636	0.270502	4148.287109
8907.015171	0.089908	0.270502	4226.777344
8907.016062	0.090051	0.270502	4307.013184
8907.017143	0.089945	0.270502	4404.243652
8907.018021	0.089894	0.270502	4483.170410
8907.018886	0.090018	0.270502	4561.036133
8907.019765	0.090044	0.270502	4640.184570
8907.020803	0.090051	0.270502	4733.657715
8907.021692	0.090026	0.270502	4813.690430
8907.022563	0.089989	0.270502	4892.070801
8908.032562	1.160808	0.233880	632.640442
8908.033636	1.564468	0.233880	2312.878662
8908.034546	1.537595	0.233880	3712.090332
8908.035431	0.547192	0.233880	4196.355469
8908.036455	0.091813	0.233880	4290.371582
8908.037426	0.089989	0.233880	4377.750977
8908.038343	0.089850	0.233880	4460.143066
8908.039202	0.090037	0.233880	4537.484375
8908.040284	0.090088	0.233880	4634.959473
8908.041175	0.089927	0.233880	4715.083984
8908.042043	0.090051	0.233880	4793.248535
8908.043029	0.090015	0.233880	4882.002930
8908.044019	0.089949	0.233880	4971.052246
8908.044906	0.089952	0.233880	5050.839844
8909.037042	1.105953	0.275025	529.751648
8909.037913	1.558506	0.275025	1887.210205
8909.038862	1.547439	0.275025	3355.729736
8909.039925	0.648600	0.275025	4045.191406
8909.040861	0.092307	0.275025	4131.590820
8909.041730	0.089795	0.275025	4209.622559
8909.042768	0.089938	0.275025	4302.978027
8909.043781	0.089945	0.275025	4394.092285
8909.044668	0.089945	0.275025	4473.873535
8909.045618	0.089952	0.275025	4559.328125
8909.046677	0.090026	0.275025	4654.665039
8909.047599	0.089886	0.275025	4737.540527
8909.048461	0.089982	0.275025	4815.104980
8909.049528	0.090011	0.275025	4911.146484
8910.059965	1.054541	0.234436	448.179932
8910.060832	1.554749	0.234436	1796.146973
8910.061785	1.549709	0.234436	3273.020020
8910.062737	0.904314	0.234436	4133.926758
8910.063657	0.100404	0.234436	4226.298340
8910.064532	0.089843	0.234436	4304.910645
8910.065635	0.089989	0.234436	4404.168457
8910.066680	0.090004	0.234436	4498.222168
8910.067594	0.089846	0.234436	4580.341797
8910.068457	0.089967	0.234436	4657.983398
8910.069544	0.089967	0.234436	4755.777344
8910.070507	0.089941	0.234436	4842.391113
8910.071391	0.089923	0.234436	4921.883301
8910.072392	0.089996	0.234436	5011.969727
8911.064539	1.097827	0.265071	490.728760
8911.065484	1.560498	0.265071	1965.399414
8911.066408	1.546432	0.265071	3394.302490
8911.067281	0.870146	0.265071	4153.940430
8911.068257	0.098416	0.265071	4249.994141
8911.069200	0.089846	0.265071	4334.719238
8911.070095	0.089945	0.265071	4415.220215
8911.071023	0.089985	0.265071	4498.726562
8911.071975	0.089949	0.265071	4584.357910
8911.072883	0.089967	0.265071	4666.047852
8911.073776	0.089930	0.265071	4746.355469
8911.074685	0.090029	0.265071	4828.191895
8911.075633	0.089864	0.265071	4913.383301
8911.076552	0.089952	0.265071	4996.049316
8912.086455	1.047334	0.227930	439.880310
8912.087369	1.555378	0.227930	1861.496094
8912.088329	1.547772	0.227930	3347.357422
8912.089270	0.833438	0.227930	4131.622070
8912.090134	0.101060	0.227930	4218.937500
8912.091101	0.089828	0.227930	4305.801270
8912.092032	0.089985	0.227930	4389.577637
8912.092922	0.089956	0.227930	4469.638672
8912.093800	0.089905	0.227930	4548.575195
8912.094779	0.090022	0.227930	4636.706543
8912.095726	0.089989	0.227930	4721.926270
8912.096619	0.089927	0.227930	4802.230957
8912.097524	0.089985	0.227930	4883.667480
8912.098485	0.089982	0.227930	4970.139648
8913.092053	1.083893	0.263097	480.164520
8913.092918	1.555737	0.263097	1825.877319
8913.093885	1.548303	0.263097	3323.086426
8913.094802	0.899594	0.263097	4148.013672
8913.095674	0.103828	0.263097	4238.551758
8913.096614	0.089875	0.263097	4323.034668
8913.097555	0.089971	0.263097	4407.697266
8913.098480	0.090000	0.263097	4490.947266
8913.099355	0.089952	0.263097	4569.655762
8913.100296	0.089883	0.263097	4654.235352
8913.101237	0.089938	0.263097	4738.866699
8913.102128	0.089945	0.263097	4819.007812
8913.103290	0.090007	0.263097	4923.596191
8913.104197	0.089843	0.263097	5005.083496
8914.114005	1.070138	0.234053	478.351624
8914.114879	1.556371	0.234053	1838.619629
8914.115897	1.545751	0.234053	3412.193848
8914.116870	0.728829	0.234053	4121.344727
8914.117794	0.094896	0.234053	4209.028809
8914.118654	0.089967	0.234053	4286.400391
8914.119691	0.090018	0.234053	4379.749512
8914.120591	0.089971	0.234053	4460.723145
8914.121512	0.089985	0.234053	4543.599609
8914.122379	0.089963	0.234053	4621.597656
8914.123406	0.090000	0.234053	4714.027832
8914.124293	0.089905	0.234053	4793.773437
8914.125166	0.089982	0.234053	4872.327637
8914.126167	0.090011	0.234053	4962.428711
8915.117505	1.059188	0.265772	451.214203
8915.118513	1.556682	0.265772	2020.349854
8915.119578	1.539152	0.265772	3659.546387
8915.120490	0.544076	0.265772	4155.743652
8915.121353	0.092721	0.265772	4235.761719
8915.122465	0.089993	0.265772	4335.833496
8915.123426	0.089952	0.265772	4422.277832
8915.124290	0.089923	0.265772	4499.971191
8915.125323	0.089930	0.265772	4592.869141
8915.126355	0.089993	0.265772	4685.741699
8915.127244	0.089938	0.265772	4765.696289
8915.128132	0.089974	0.265772	4845.593750
8915.129196	0.090077	0.265772	4941.435547
8915.130149	0.089971	0.265772	5027.177734
8916.140473	1.056017	0.230561	444.583069
8916.141437	1.558352	0.230561	1946.834473
8916.142376	1.546589	0.230561	3399.082031
8916.143269	0.863075	0.230561	4169.808105
8916.144160	0.102634	0.230561	4261.255371
8916.145099	0.089795	0.230561	4345.572754
8916.146043	0.089996	0.230561	4430.529297
8916.146924	0.090059	0.230561	4509.871094
8916.147890	0.090062	0.230561	4596.871094
8916.148942	0.089971	0.230561	4691.520508
8916.149943	0.089901	0.230561	4781.511719
8916.150821	0.089963	0.230561	4860.499512
8916.151819	0.090092	0.230561	4950.411133
8916.152866	0.089989	0.230561	5044.629395
8917.145029	1.063180	0.260390	458.230560
8917.145891	1.554478	0.260390	1798.190308
8917.146881	1.548571	0.260390	3331.275146
8917.147841	0.851034	0.260390	4148.267578
8917.148727	0.099690	0.260390	4236.592773
8917.149604	0.090011	0.260390	4315.532227
8917.150541	0.089897	0.260390	4399.766113
8917.151495	0.089908	0.260390	4485.538574
8917.152388	0.090062	0.260390	4565.964355
8917.153297	0.090092	0.260390	4647.857422
8917.154251	0.090055	0.260390	4733.770020
8917.155173	0.090070	0.260390	4816.813965
8917.156046	0.090007	0.260390	4895.390137
8917.156995	0.090033	0.260390	4980.831543
8918.168019	1.082798	0.233300	477.513824
8918.168884	1.555602	0.233300	1823.109375
8918.169872	1.547564	0.233300	3352.102051
8918.170796	0.862445	0.233300	4149.001465
8918.171675	0.101667	0.233300	4238.367187
8918.172588	0.089967	0.233300	4320.507324
8918.173530	0.089974	0.233300	4405.263184
8918.174451	0.090059	0.233300	4488.207031
8918.175329	0.090092	0.233300	4567.307617
8918.176339	0.089938	0.233300	4658.144531
8918.177238	0.089879	0.233300	4738.945801
8918.178158	0.090117	0.233300	4821.853516
8918.179024	0.090154	0.233300	4899.926758
8918.180007	0.089952	0.233300	4988.350098
8919.172631	1.134525	0.257941	571.800659
8919.173512	1.559897	0.257941	1946.070312
8919.174373	1.548973	0.257941	3279.736328
8919.175416	0.743965	0.257941	4055.691650
8919.176378	0.093483	0.257941	4145.622070
8919.177247	0.089949	0.257941	4223.787598
8919.178132	0.090000	0.257941	4303.437500
8919.179231	0.089985	0.257941	4402.331543
8919.180130	0.089894	0.257941	4483.145996
8919.180994	0.089993	0.257941	4560.899902
8919.182030	0.090048	0.257941	4654.189453
8919.182998	0.090037	0.257941	4741.344727
8919.183876	0.090011	0.257941	4820.374512
8919.184740	0.089934	0.257941	4898.077637
8920.196563	1.076525	0.224812	475.823944
8920.197426	1.555448	0.224812	1818.175659
8920.198503	1.543381	0.224812	3480.397461
8920.199501	0.585033	0.224812	4064.260254
8920.200397	0.092769	0.224812	4147.380859
8920.201382	0.090037	0.224812	4236.066895
8920.202425	0.090015	0.224812	4329.952148
8920.203329	0.090048	0.224812	4411.354980
8920.204196	0.089963	0.224812	4489.353027
8920.205297	0.090000	0.224812	4588.442871
8920.206267	0.089832	0.224812	4675.579590
8920.207136	0.090099	0.224812	4753.875488
8920.208174	0.090081	0.224812	4847.378906
8920.209216	0.089982	0.224812	4941.139648
8921.200111	1.096542	0.257454	525.243530
8921.201047	1.560978	0.257454	1986.318726
8921.201974	1.545839	0.257454	3419.311035
8921.202843	0.869531	0.257454	4174.933594
8921.203817	0.098481	0.257454	4270.854492
8921.204730	0.089861	0.257454	4352.897461
8921.205647	0.090029	0.257454	4435.454102
8921.206509	0.090059	0.257454	4513.084473
8921.207465	0.089963	0.257454	4599.089355
8921.208417	0.089916	0.257454	4684.688965
8921.209310	0.090011	0.257454	4765.068848
8921.210219	0.089938	0.257454	4846.822266
8921.211162	0.089971	0.257454	4931.664551
8921.212078	0.089875	0.257454	5013.990723
8922.223081	1.084750	0.221690	508.747620
8922.224012	1.560245	0.221690	1961.335937
8922.224894	1.548018	0.221690	3326.687500
8922.225819	0.894353	0.221690	4153.963867
8922.226776	0.099529	0.221690	4249.212891
8922.227694	0.089846	0.221690	4331.691895
8922.228571	0.089978	0.221690	4410.602539
8922.229482	0.089872	0.221690	4492.475586
8922.230434	0.089996	0.221690	4578.152344
8922.231353	0.090044	0.221690	4660.902832
8922.232228	0.089872	0.221690	4739.540527
8922.233193	0.090029	0.221690	4826.418945
8922.234142	0.089960	0.221690	4911.790527
8922.235034	0.090022	0.221690	4992.090332
8923.226565	1.057661	0.259436	454.794312
8923.227425	1.554133	0.259436	1791.348999
8923.228498	1.544681	0.259436	3448.791992
8923.229434	0.725028	0.259436	4127.418457
8923.230343	0.095164	0.259436	4213.922363
8923.231220	0.089883	0.259436	4292.749512
8923.232249	0.089821	0.259436	4385.174805
8923.233145	0.089828	0.259436	4465.660645
8923.234020	0.090004	0.259436	4544.414062
8923.234945	0.089978	0.259436	4627.643555
8923.235947	0.089879	0.259436	4717.702637
8923.236864	0.090007	0.259436	4800.239258
8923.237725	0.089963	0.259436	4877.697754
8923.238808	0.089993	0.259436	4975.159668
8924.249544	1.067058	0.227278	464.170258
8924.250404	1.554419	0.227278	1800.970581
8924.251502	1.542777	0.227278	3494.939941
8924.252483	0.619797	0.227278	4102.960937
8924.253357	0.093435	0.227278	4184.623047
8924.254217	0.089791	0.227278	4261.843750
8924.255337	0.089923	0.227278	4362.557617
8924.256242	0.089901	0.227278	4443.917969
8924.257104	0.090011	0.227278	4521.507324
8924.258191	0.090081	0.227278	4619.424805
8924.259163	0.090022	0.227278	4706.926270
8924.260038	0.090026	0.227278	4785.698730
8924.260897	0.089963	0.227278	4862.977051
8924.262003	0.089952	0.227278	4962.464355
8925.254109	1.111183	0.258888	501.143433
8925.255042	1.560249	0.258888	1956.855713
8925.255922	1.548475	0.258888	3319.514160
8925.256851	0.877899	0.258888	4135.082520
8925.257808	0.099500	0.258888	4230.303711
8925.258721	0.089875	0.258888	4312.359863
8925.259587	0.089901	0.258888	4390.214355
8925.260560	0.089886	0.258888	4477.673828
8925.261460	0.089927	0.258888	4558.607910
8925.262370	0.089971	0.258888	4640.481445
8925.263240	0.089996	0.258888	4718.778320
8925.264323	0.090048	0.258888	4816.299805
8925.265364	0.089843	0.258888	4909.825684
8925.266251	0.090029	0.258888	4989.681641
8926.275001	1.048627	0.230887	441.471832
8926.275901	1.554166	0.230887	1840.221436
8926.276856	1.547428	0.230887	3318.015137
8926.277787	0.871791	0.230887	4129.652344
8926.278662	0.102795	0.230887	4219.598145
8926.279590	0.089795	0.230887	4302.927734
8926.280539	0.089971	0.230887	4388.310059
8926.281449	0.089989	0.230887	4470.200195
8926.282328	0.089985	0.230887	4549.297363
8926.283278	0.089956	0.230887	4634.755859
8926.284227	0.089832	0.230887	4720.005859
8926.285119	0.090033	0.230887	4800.315430
8926.286008	0.090062	0.230887	4880.380859
8926.286949	0.089883	0.230887	4964.960449
8927.282662	1.078594	0.258304	487.524353
8927.283541	1.556873	0.258304	1856.015381
8927.284409	1.551156	0.258304	3202.418945
8927.285396	0.884407	0.258304	4075.328369
8927.286294	0.101642	0.258304	4166.602539
8927.287203	0.089949	0.258304	4248.365723
8927.288077	0.090070	0.258304	4327.086426
8927.289071	0.089996	0.258304	4416.542969
8927.289988	0.090044	0.258304	4499.113281
8927.290872	0.090055	0.258304	4578.721680
8927.291738	0.089963	0.258304	4656.629883
8927.292705	0.090125	0.258304	4743.780273
8927.293659	0.089993	0.258304	4829.633301
8927.294537	0.089982	0.258304	4908.637207
8928.302553	1.071350	0.223419	486.392944
8928.303453	1.557876	0.223419	1888.481323
8928.304318	1.548662	0.223419	3228.073975
8928.305377	0.778956	0.223419	4052.988770
8928.306257	0.096742	0.223419	4138.121582
8928.307133	0.089919	0.223419	4216.891113
8928.308129	0.089938	0.223419	4306.469238
8928.309044	0.090022	0.223419	4388.839355
8928.309970	0.089996	0.223419	4472.175781
8928.310835	0.089996	0.223419	4550.022461
8928.311856	0.089971	0.223419	4641.882324
8928.312746	0.090026	0.223419	4722.005371
8928.313623	0.090000	0.223419	4800.935547
8928.314599	0.090121	0.223419	4888.893555
8929.310224	1.109637	0.251802	567.024780
8929.311320	1.563406	0.251802	2280.517578
8929.312229	1.537899	0.251802	3678.468018
8929.313100	0.579203	0.251802	4182.953613
8929.314153	0.091102	0.251802	4278.884277
8929.315165	0.089912	0.251802	4369.875488
8929.316060	0.089956	0.251802	4450.386230
8929.317014	0.090018	0.251802	4536.263672
8929.318057	0.090015	0.251802	4630.148926
8929.318967	0.089993	0.251802	4712.042480
8929.319831	0.090007	0.251802	4789.808594
8929.320922	0.090044	0.251802	4888.046387
8929.321908	0.090018	0.251802	4976.804687
8929.322797	0.089905	0.251802	5056.729980
8930.328007	1.071354	0.224285	467.110199
8930.328875	1.555415	0.224285	1817.210449
8930.329849	1.547827	0.224285	3324.793945
8930.330781	0.868337	0.224285	4134.084473
8930.331656	0.102253	0.224285	4223.556152
8930.332585	0.089919	0.224285	4307.091309
8930.333540	0.089923	0.224285	4392.967773
8930.334466	0.090000	0.224285	4476.307617
8930.335326	0.090015	0.224285	4553.720215
8930.336260	0.089839	0.224285	4637.629883
8930.337231	0.089963	0.224285	4724.984375
8930.338151	0.090004	0.224285	4807.787598
8930.339012	0.090022	0.224285	4885.296387
8930.339986	0.089883	0.224285	4972.842285
8931.338699	1.070687	0.247633	471.102356
8931.339635	1.558769	0.247633	1930.110596
8931.340514	1.549065	0.247633	3291.738770
8931.341484	0.867283	0.247633	4133.002930
8931.342435	0.098804	0.247633	4226.965332
8931.343357	0.089864	0.247633	4309.820312
8931.344214	0.090048	0.247633	4386.991211
8931.345162	0.089941	0.247633	4472.255859
8931.346121	0.089952	0.247633	4558.520020
8931.347042	0.090022	0.247633	4641.430176
8931.347915	0.089967	0.247633	4719.971191
8931.348896	0.089941	0.247633	4808.203613
8931.349820	0.089945	0.247633	4891.312988
8931.350685	0.089989	0.247633	4969.153320
8932.353503	1.080666	0.225586	499.267883
8932.354591	1.563497	0.225586	2200.353027
8932.355475	1.541869	0.225586	3563.365234
8932.356354	0.713298	0.225586	4190.354492
8932.357244	0.096229	0.225586	4275.998535
8932.358298	0.089934	0.225586	4370.789062
8932.359179	0.089971	0.225586	4450.053223
8932.360055	0.090040	0.225586	4528.928711
8932.361049	0.089901	0.225586	4618.290527
8932.361973	0.090004	0.225586	4701.454102
8932.362886	0.090033	0.225586	4783.654297
8932.363752	0.089919	0.225586	4861.524414
8932.364781	0.089982	0.225586	4954.115723
8932.365666	0.089941	0.225586	5033.713867
8933.368266	1.059639	0.249732	459.883209
8933.369128	1.554983	0.249732	1800.278442
8933.370020	1.549955	0.249732	3182.838379
8933.371119	0.769193	0.249732	4028.181641
8933.372017	0.095826	0.249732	4114.233887
8933.372880	0.089938	0.249732	4191.850098
8933.373930	0.090004	0.249732	4286.354004
8933.374901	0.089934	0.249732	4373.680176
8933.375775	0.089989	0.249732	4452.330566
8933.376634	0.089930	0.249732	4529.580566
8933.377749	0.089971	0.249732	4629.897949
8933.378640	0.089956	0.249732	4710.048828
8933.379515	0.090000	0.249732	4788.798828
8933.380515	0.090018	0.249732	4878.817383
8934.377959	1.109795	0.230690	508.286102
8934.378846	1.558777	0.230690	1890.921143
8934.379832	1.545853	0.230690	3415.132324
8934.380884	0.618428	0.230690	4065.718262
8934.381796	0.092300	0.230690	4149.895508
8934.382657	0.089813	0.230690	4227.224609
8934.383745	0.090015	0.230690	4325.160645
8934.384738	0.089905	0.230690	4414.436035
8934.385625	0.089901	0.230690	4494.178223
8934.386625	0.090022	0.230690	4584.200195
8934.387670	0.089919	0.230690	4678.166016
8934.388557	0.089974	0.230690	4757.973145
8934.389416	0.089956	0.230690	4835.245605
8934.390518	0.089982	0.230690	4934.405273
8935.395817	1.121682	0.243770	529.433960
8935.396752	1.560970	0.243770	1988.941284
8935.397675	1.545996	0.243770	3415.895508
8935.398546	0.870300	0.243770	4173.927246
8935.399516	0.098826	0.243770	4269.788086
8935.400468	0.089949	0.243770	4355.419434
8935.401352	0.089949	0.243770	4434.934082
8935.402234	0.089956	0.243770	4514.275391
8935.403183	0.089857	0.243770	4599.549805
8935.404129	0.089751	0.243770	4684.454102
8935.405022	0.089916	0.243770	4764.749023
8935.405936	0.089802	0.243770	4846.828125
8935.406893	0.089901	0.243770	4932.863281
8935.407820	0.089879	0.243770	5016.181152
8936.405500	1.117152	0.224277	532.881531
8936.406428	1.560648	0.224277	1981.162842
8936.407304	1.547834	0.224277	3337.065918
8936.408239	0.861826	0.224277	4142.873535
8936.409184	0.099038	0.224277	4236.464355
8936.410092	0.089916	0.224277	4318.107910
8936.410970	0.089883	0.224277	4397.024902
8936.411914	0.090011	0.224277	4481.995117
8936.412840	0.089919	0.224277	4565.260742
8936.413764	0.089978	0.224277	4648.400391
8936.414629	0.090070	0.224277	4726.310547
8936.415593	0.089894	0.224277	4812.968262
8936.416544	0.089916	0.224277	4898.478027
8936.417433	0.089901	0.224277	4978.399902
8937.424401	1.149664	0.242223	585.179138
8937.425287	1.559956	0.242223	1967.300293
8937.426214	1.546820	0.242223	3401.202637
8937.427081	0.879877	0.242223	4164.055664
8937.428065	0.097826	0.242223	4260.316406
8937.428987	0.089883	0.242223	4343.188477
8937.429872	0.089982	0.242223	4422.822266
8937.430812	0.089993	0.242223	4507.415527
8937.431726	0.089894	0.242223	4589.578613
8937.432672	0.090004	0.242223	4674.722168
8937.433566	0.089974	0.242223	4755.159180
8937.434491	0.089993	0.242223	4838.402344
8937.435443	0.090000	0.242223	4924.082520
8937.436364	0.090077	0.242223	5007.043457
8938.430934	1.088943	0.232655	488.935364
8938.431810	1.556949	0.232655	1852.823242
8938.432673	1.550383	0.232655	3190.803955
8938.433761	0.775723	0.232655	4034.790039
8938.434689	0.095277	0.232655	4123.207031
8938.435566	0.089897	0.232655	4202.046875
8938.436536	0.090084	0.232655	4289.428711
8938.437536	0.090011	0.232655	4379.439453
8938.438418	0.089978	0.232655	4458.800293
8938.439289	0.089952	0.232655	4537.148926
8938.440268	0.090190	0.232655	4625.445312
8938.441204	0.090004	0.232655	4709.688965
8938.442110	0.089974	0.232655	4791.205566
8938.442987	0.089927	0.232655	4870.071289
8939.452981	1.171143	0.239906	621.876709
8939.454007	1.563977	0.239906	2226.517090
8939.454902	1.540441	0.239906	3605.211426
8939.455867	0.610840	0.239906	4194.671875
8939.456916	0.090776	0.239906	4289.896484
8939.457839	0.089919	0.239906	4372.892090
8939.458707	0.090055	0.239906	4451.059570
8939.459773	0.089993	0.239906	4546.991699
8939.460783	0.089956	0.239906	4637.847168
8939.461671	0.089934	0.239906	4717.708496
8939.462647	0.090051	0.239906	4805.598633
8939.463680	0.090004	0.239906	4898.572266
8939.464598	0.089923	0.239906	4981.121582
8939.465474	0.090040	0.239906	5059.997070
8940.457407	1.053325	0.234658	444.503235
8940.458328	1.555283	0.234658	1876.918945
8940.459293	1.546985	0.234658	3369.759277
8940.460221	0.834027	0.234658	4143.736328
8940.461085	0.100961	0.234658	4230.966309
8940.462042	0.089802	0.234658	4316.907227
8940.462966	0.089974	0.234658	4400.043457
8940.463880	0.089956	0.234658	4482.263184
8940.464747	0.090048	0.234658	4560.334473
8940.465721	0.090037	0.234658	4648.030273
8940.466679	0.089989	0.234658	4734.239746
8940.467573	0.090044	0.234658	4814.739258
8940.468480	0.090022	0.234658	4896.389160
8940.469434	0.090033	0.234658	4982.280762
8941.480386	1.060312	0.238033	451.693085
8941.481324	1.558202	0.238033	1913.286499
8941.482289	1.545564	0.238033	3404.755859
8941.483222	0.791290	0.238033	4143.029785
8941.484084	0.098958	0.238033	4228.331055
8941.485049	0.089974	0.238033	4315.156250
8941.485980	0.090011	0.238033	4398.956543
8941.486875	0.090051	0.238033	4479.552246
8941.487791	0.089806	0.238033	4561.814453
8941.488720	0.089963	0.238033	4645.390625
8941.489656	0.089912	0.238033	4729.548340
8941.490549	0.090007	0.238033	4809.924805
8941.491461	0.089817	0.238033	4891.837891
8941.492426	0.089963	0.238033	4978.652344
8942.484973	1.071354	0.227926	502.464874
8942.485853	1.557711	0.227926	1873.250610
8942.486741	1.548355	0.227926	3248.189453
8942.487732	0.824443	0.227926	4065.212891
8942.488659	0.097324	0.227926	4155.432617
8942.489550	0.089974	0.227926	4235.599609
8942.490461	0.089897	0.227926	4317.496094
8942.491415	0.090092	0.227926	4403.443359
8942.492336	0.090059	0.227926	4486.387207
8942.493198	0.089967	0.227926	4563.938965
8942.494154	0.089996	0.227926	4649.975586
8942.495081	0.089956	0.227926	4733.364746
8942.496015	0.090033	0.227926	4817.455566
8942.496873	0.089934	0.227926	4894.619141
8943.507917	1.068193	0.237034	471.073242
8943.508786	1.555851	0.237034	1823.107666
8943.509754	1.548153	0.237034	3321.719727
8943.510705	0.839908	0.237034	4120.472656
8943.511615	0.098540	0.237034	4210.144043
8943.512494	0.089864	0.237034	4289.134766
8943.513529	0.090018	0.237034	4382.303711
8943.514421	0.089952	0.237034	4462.541016
8943.515293	0.090037	0.237034	4541.052734
8943.516206	0.090033	0.237034	4623.252930
8943.517212	0.090059	0.237034	4713.852051
8943.518095	0.089919	0.237034	4793.250977
8943.518960	0.090066	0.237034	4871.158203
8943.519974	0.089993	0.237034	4962.410645
8944.510405	1.075470	0.237743	466.753967
8944.511285	1.555994	0.237743	1836.028320
8944.512297	1.546154	0.237743	3400.735840
8944.513357	0.634021	0.237743	4072.798096
8944.514245	0.092794	0.237743	4155.199219
8944.515127	0.089967	0.237743	4234.550293
8944.516216	0.090033	0.237743	4332.596191
8944.517174	0.089974	0.237743	4418.791504
8944.518045	0.089996	0.237743	4497.178223
8944.518926	0.090051	0.237743	4576.513184
8944.520013	0.089963	0.237743	4674.303223
8944.520896	0.089934	0.237743	4753.714844
8944.521754	0.090011	0.237743	4830.944336
8944.522777	0.090048	0.237743	4923.062988
8945.536521	1.122810	0.230597	561.405090
8945.537404	1.560330	0.230597	1939.176270
8945.538267	1.547289	0.230597	3274.486328
8945.539384	0.649523	0.230597	4000.003174
8945.540361	0.091761	0.230597	4089.654053
8945.541223	0.089978	0.230597	4167.215332
8945.542309	0.090077	0.230597	4265.039062
8945.543330	0.090077	0.230597	4357.007812
8945.544219	0.090029	0.230597	4437.043945
8945.545146	0.090055	0.230597	4520.524902
8945.546199	0.090040	0.230597	4615.337402
8945.547144	0.089905	0.230597	4700.297363
8945.548006	0.089974	0.230597	4777.855469
8945.549039	0.090095	0.230597	4870.923828
8946.537944	1.096476	0.231995	482.449310
8946.538870	1.558792	0.231995	1925.890259
8946.539796	1.547530	0.231995	3358.903320
8946.540664	0.913052	0.231995	4151.432129
8946.541621	0.101078	0.231995	4248.163574
8946.542564	0.089927	0.231995	4332.964355
8946.543458	0.089963	0.231995	4413.391602
8946.544378	0.089971	0.231995	4496.164551
8946.545337	0.089919	0.231995	4582.397461
8946.546227	0.089985	0.231995	4662.484375
8946.547116	0.089993	0.231995	4742.487793
8946.548060	0.089941	0.231995	4827.392578
8946.549007	0.089985	0.231995	4912.608887
8946.549890	0.090044	0.231995	4992.117676
8947.564036	1.137275	0.228643	553.853088
8947.564955	1.560736	0.228643	1988.169434
8947.565829	1.547626	0.228643	3340.794434
8947.566769	0.866854	0.228643	4155.637695
8947.567706	0.098804	0.228643	4248.216797
8947.568629	0.089923	0.228643	4331.215820
8947.569502	0.090004	0.228643	4409.789062
8947.570433	0.089963	0.228643	4493.544922
8947.571376	0.090018	0.228643	4578.432129
8947.572302	0.090066	0.228643	4661.833008
8947.573163	0.090018	0.228643	4739.338867
8947.574126	0.089908	0.228643	4825.920898
8947.575081	0.090026	0.228643	4911.895508
8947.575974	0.090048	0.228643	4992.308105
8948.565433	1.052168	0.229924	445.067078
8948.566404	1.556448	0.229924	1956.377930
8948.567315	1.546747	0.229924	3365.464355
8948.568238	0.847222	0.229924	4147.450195
8948.569101	0.101642	0.229924	4235.166992
8948.570092	0.089864	0.229924	4324.222656
8948.571020	0.090040	0.229924	4407.780273
8948.571945	0.090044	0.229924	4491.070801
8948.572806	0.089916	0.229924	4568.488281
8948.573770	0.090015	0.229924	4655.262207
8948.574694	0.089923	0.229924	4738.351074
8948.575592	0.090106	0.229924	4819.266602
8948.576499	0.089993	0.229924	4900.890137
8948.577459	0.090055	0.229924	4987.342773
8949.591480	1.049029	0.224957	441.641418
8949.592449	1.554287	0.224957	1947.745605
8949.593403	1.545289	0.224957	3421.951660
8949.594327	0.791558	0.224957	4153.351074
8949.595200	0.097906	0.224957	4238.823242
8949.596233	0.089886	0.224957	4331.675781
8949.597129	0.089985	0.224957	4412.302734
8949.598003	0.090026	0.224957	4490.985352
8949.598912	0.090084	0.224957	4572.872070
8949.599929	0.089938	0.224957	4664.338867
8949.600817	0.089905	0.224957	4744.174316
8949.601683	0.089952	0.224957	4822.073242
8949.602677	0.089912	0.224957	4911.445801
8949.603591	0.089930	0.224957	4993.642090
8950.590913	1.057734	0.237067	449.537109
8950.591868	1.554716	0.237067	1934.290405
8950.592890	1.543026	0.237067	3511.263184
8950.593784	0.737820	0.237067	4170.874023
8950.594651	0.096936	0.237067	4254.917480
8950.595706	0.090062	0.237067	4349.933105
8950.596647	0.089989	0.237067	4434.612793
8950.597513	0.090088	0.237067	4512.628906
8950.598432	0.089978	0.237067	4595.318848
8950.599498	0.089890	0.237067	4691.141602
8950.600393	0.090011	0.237067	4771.701660
8950.601259	0.090033	0.237067	4849.670410
8950.602284	0.090000	0.237067	4941.920410
8950.603252	0.090062	0.237067	5029.100586
8951.616972	1.078502	0.229231	465.912933
8951.617905	1.555195	0.229231	1916.910156
8951.618959	1.541807	0.229231	3541.974365
8951.619900	0.630754	0.229231	4135.514160
8951.620774	0.094017	0.229231	4217.685547
8951.621732	0.089956	0.229231	4303.863281
8951.622772	0.089908	0.229231	4397.368164
8951.623649	0.089912	0.229231	4476.221191
8951.624507	0.090037	0.229231	4553.472656
8951.625520	0.089927	0.229231	4644.568359
8951.626479	0.089919	0.229231	4730.801270
8951.627355	0.090011	0.229231	4809.650879
8951.628254	0.090018	0.229231	4890.577148
8951.629333	0.090000	0.229231	4987.687012
8952.618514	1.128237	0.232571	572.016296
8952.619526	1.563614	0.232571	2154.394043
8952.620399	1.542880	0.232571	3501.328125
8952.621402	0.628693	0.232571	4131.906738
8952.622456	0.090970	0.232571	4227.789551
8952.623362	0.090062	0.232571	4309.385742
8952.624227	0.090004	0.232571	4387.238770
8952.625318	0.090004	0.232571	4485.432617
8952.626287	0.089897	0.232571	4572.543457
8952.627169	0.089864	0.232571	4651.803711
8952.628155	0.090011	0.232571	4740.554687
8952.629190	0.089963	0.232571	4833.666992
8952.630082	0.089982	0.232571	4913.930664
8952.630944	0.089993	0.232571	4991.504395
8953.644539	1.081476	0.227548	515.863953
8953.645416	1.558557	0.227548	1882.718506
8953.646286	1.549929	0.227548	3231.156738
8953.647216	0.933889	0.227548	4099.673828
8953.648171	0.100294	0.227548	4195.454590
8953.649102	0.090033	0.227548	4279.275391
8953.649966	0.089934	0.227548	4356.978516
8953.650937	0.089974	0.227548	4444.343750
8953.651886	0.089945	0.227548	4529.701660
8953.652774	0.090048	0.227548	4609.664062
8953.653691	0.089919	0.227548	4692.120117
8953.654599	0.089949	0.227548	4773.793457
8953.655540	0.089897	0.227548	4858.387207
8953.656426	0.090022	0.227548	4938.146484
8954.648005	1.056771	0.221892	455.468414
8954.648870	1.554591	0.221892	1800.189697
8954.649829	1.548615	0.221892	3285.311035
8954.650777	0.863877	0.221892	4104.266602
8954.651705	0.099536	0.221892	4196.636230
8954.652565	0.089890	0.221892	4273.941895
8954.653537	0.090194	0.221892	4361.610352
8954.654486	0.089989	0.221892	4447.009766
8954.655357	0.090070	0.221892	4525.460449
8954.656269	0.089989	0.221892	4607.530273
8954.657198	0.089989	0.221892	4691.129883
8954.658146	0.089949	0.221892	4776.401367
8954.659032	0.089985	0.221892	4856.128418
8954.659942	0.090103	0.221892	4938.121582
8955.671993	1.049366	0.228498	440.733917
8955.672916	1.554606	0.228498	1875.635010
8955.673860	1.547600	0.228498	3336.569580
8955.674794	0.855831	0.228498	4135.916016
8955.675659	0.102330	0.228498	4224.431641
8955.676633	0.089780	0.228498	4311.877441
8955.677580	0.089934	0.228498	4397.044922
8955.678482	0.089879	0.228498	4478.115723
8955.679340	0.089945	0.228498	4555.288574
8955.680294	0.090000	0.228498	4641.148437
8955.681233	0.090092	0.228498	4725.744629
8955.682122	0.090048	0.228498	4805.796875
8955.683031	0.090040	0.228498	4887.643555
8955.683979	0.089993	0.228498	4972.956543
8956.676596	1.097164	0.215104	513.472900
8956.677484	1.558499	0.215104	1897.419678
8956.678352	1.549457	0.215104	3242.348145
8956.679367	0.860581	0.215104	4115.837891
8956.680296	0.097881	0.215104	4206.769043
8956.681192	0.089930	0.215104	4287.346680
8956.682065	0.089982	0.215104	4365.900879
8956.683029	0.090040	0.215104	4452.699707
8956.683983	0.089989	0.215104	4538.549316
8956.684878	0.089985	0.215104	4619.086426
8956.685786	0.090066	0.215104	4700.866211
8956.686741	0.089919	0.215104	4786.739258
8956.687659	0.089971	0.215104	4869.332520
8956.688525	0.090106	0.215104	4947.364258
8957.698490	1.072994	0.223511	453.876617
8957.699467	1.559685	0.223511	1977.688843
8957.700394	1.546124	0.223511	3410.946045
8957.701272	0.875673	0.223511	4179.786621
8957.702222	0.101902	0.223511	4276.593262
8957.703151	0.089777	0.223511	4359.995605
8957.704065	0.089934	0.223511	4442.195312
8957.704945	0.090007	0.223511	4521.401855
8957.705888	0.090157	0.223511	4606.420410
8957.706819	0.089930	0.223511	4690.145508
8957.707736	0.089952	0.223511	4772.631836
8957.708599	0.089857	0.223511	4850.178711
8957.709580	0.089894	0.223511	4938.364746
8957.710526	0.090026	0.223511	5023.528809
8958.703047	1.068904	0.216824	462.835358
8958.703920	1.555635	0.216824	1820.904419
8958.704894	1.548131	0.216824	3328.784180
8958.705859	0.815852	0.216824	4116.081543
8958.706784	0.096976	0.216824	4205.784668
8958.707647	0.089923	0.216824	4283.388184
8958.708676	0.089956	0.216824	4375.953125
8958.709564	0.090011	0.216824	4455.882812
8958.710478	0.089963	0.216824	4538.109375
8958.711346	0.090070	0.216824	4616.289551
8958.712297	0.089908	0.216824	4701.792480
8958.713218	0.089967	0.216824	4784.652344
8958.714107	0.090022	0.216824	4864.681641
8958.715087	0.090117	0.216824	4952.996582
8959.725065	1.123707	0.225425	558.482544
8959.725978	1.561175	0.225425	1983.835693
8959.726858	1.547234	0.225425	3345.401367
8959.727853	0.758756	0.225425	4100.363770
8959.728850	0.092772	0.225425	4192.857422
8959.729743	0.089949	0.225425	4273.181641
8959.730617	0.089945	0.225425	4351.793457
8959.731624	0.089908	0.225425	4442.331055
8959.732542	0.089956	0.225425	4524.910645
8959.733466	0.089982	0.225425	4608.053711
8959.734329	0.090015	0.225425	4685.736328
8959.735343	0.089883	0.225425	4776.877441
8959.736231	0.089971	0.225425	4856.771484
8959.737109	0.090011	0.225425	4935.801270
8960.730682	1.171168	0.224055	646.484863
8960.731745	1.563962	0.224055	2308.976807
8960.732638	1.538291	0.224055	3682.670654
8960.733506	0.583282	0.224055	4188.959961
8960.734602	0.090857	0.224055	4288.539062
8960.735556	0.090007	0.224055	4374.406250
8960.736433	0.089883	0.224055	4453.233398
8960.737316	0.090044	0.224055	4532.742187
8960.738404	0.089938	0.224055	4630.594238
8960.739289	0.089996	0.224055	4710.241211
8960.740147	0.090015	0.224055	4787.473633
8960.741185	0.089963	0.224055	4880.855469
8960.742159	0.089905	0.224055	4968.422852
8960.743032	0.089971	0.224055	5046.967285
8961.750610	1.196653	0.229380	691.665344
8961.751662	1.564296	0.229380	2337.304443
8961.752557	1.537683	0.229380	3713.530762
8961.753475	0.546899	0.229380	4215.584473
8961.754560	0.090417	0.229380	4313.687500
8961.755498	0.089813	0.229380	4397.932129
8961.756359	0.089868	0.229380	4475.308594
8961.757389	0.090026	0.229380	4568.035156
8961.758419	0.090022	0.229380	4660.757812
8961.759297	0.090018	0.229380	4739.793945
8961.760235	0.090070	0.229380	4824.279297
8961.761302	0.090037	0.229380	4920.348145
8961.762225	0.089974	0.229380	5003.394531
8961.763090	0.089963	0.229380	5081.212891
8962.760256	1.180485	0.213896	649.266541
8962.761319	1.563516	0.213896	2311.283691
8962.762240	1.537288	0.213896	3727.125488
8962.763104	0.552876	0.213896	4204.810547
8962.764176	0.090948	0.213896	4302.307129
8962.765173	0.089974	0.213896	4392.011719
8962.766045	0.090051	0.213896	4470.536621
8962.767013	0.090000	0.213896	4557.656738
8962.768048	0.090070	0.213896	4650.878906
8962.768951	0.089923	0.213896	4732.079590
8962.769822	0.090022	0.213896	4810.488770
8962.770910	0.089945	0.213896	4908.349121
8962.771899	0.089945	0.213896	4997.304687
8962.772792	0.089960	0.213896	5077.638672
8963.775965	1.072467	0.231830	494.407288
8963.776930	1.559740	0.231830	1999.556396
8963.777859	1.544733	0.231830	3434.612793
8963.778748	0.821085	0.231830	4164.557617
8963.779677	0.096262	0.231830	4253.985352
8963.780643	0.089817	0.231830	4340.748535
8963.781571	0.090055	0.231830	4424.319336
8963.782432	0.090007	0.231830	4501.815430
8963.783397	0.089982	0.231830	4588.647949
8963.784349	0.089927	0.231830	4674.258301
8963.785237	0.090048	0.231830	4754.220703
8963.786164	0.089989	0.231830	4837.640625
8963.787071	0.089938	0.231830	4919.214355
8963.788024	0.089985	0.231830	5004.970215
8964.787648	1.064008	0.217400	457.523285
8964.788514	1.554386	0.217400	1803.621582
8964.789497	1.547765	0.217400	3325.074463
8964.790448	0.839150	0.217400	4123.106445
8964.791336	0.100320	0.217400	4212.190430
8964.792257	0.089941	0.217400	4295.026367
8964.793226	0.089956	0.217400	4382.193848
8964.794150	0.089934	0.217400	4465.292969
8964.795010	0.090070	0.217400	4542.752930
8964.795926	0.089971	0.217400	4625.166016
8964.796878	0.089905	0.217400	4710.755371
8964.797807	0.089989	0.217400	4794.354980
8964.798674	0.089945	0.217400	4872.337402
8964.799648	0.090048	0.217400	4960.043945
8965.801453	1.071383	0.237751	511.049744
8965.802398	1.560692	0.237751	1985.903809
8965.803324	1.545410	0.237751	3416.953613
8965.804198	0.874449	0.237751	4181.222656
8965.805197	0.096167	0.237751	4277.293457
8965.806130	0.089912	0.237751	4361.181641
8965.807048	0.089978	0.237751	4443.781250
8965.807906	0.089963	0.237751	4520.969727
8965.808854	0.089949	0.237751	4606.241211
8965.809806	0.090055	0.237751	4691.973633
8965.810696	0.089945	0.237751	4772.024902
8965.811605	0.090128	0.237751	4853.951172
8965.812552	0.089930	0.237751	4939.115234
8965.813480	0.089960	0.237751	5022.597656
8966.817214	1.053054	0.207829	447.548035
8966.818207	1.560604	0.207829	1997.228027
8966.819102	1.545835	0.207829	3380.750488
8966.820009	0.844676	0.207829	4146.872070
8966.820887	0.100693	0.207829	4235.280762
8966.821851	0.089905	0.207829	4321.949219
8966.822798	0.090029	0.207829	4407.207031
8966.823688	0.089960	0.207829	4487.270996
8966.824599	0.089949	0.207829	4569.214355
8966.825520	0.090059	0.207829	4652.158203
8966.826464	0.089916	0.207829	4737.038574
8966.827350	0.090073	0.207829	4816.843262
8966.828277	0.089934	0.207829	4900.211914
8966.829219	0.089960	0.207829	4984.954102
8967.827950	1.115804	0.241888	515.501648
8967.828839	1.558301	0.241888	1900.831055
8967.829719	1.549424	0.241888	3264.323975
8967.830711	0.844830	0.241888	4102.395508
8967.831661	0.096248	0.241888	4193.830566
8967.832583	0.089934	0.241888	4276.750000
8967.833448	0.089960	0.241888	4354.564941
8967.834480	0.089919	0.241888	4447.361816
8967.835366	0.090070	0.241888	4527.163574
8967.836239	0.089974	0.241888	4605.711426
8967.837179	0.089996	0.241888	4690.308105
8967.838185	0.090040	0.241888	4780.888672
8967.839106	0.090007	0.241888	4863.785645
8967.839970	0.089967	0.241888	4941.517090
8968.844748	1.065128	0.216683	466.526154
8968.845615	1.555463	0.216683	1815.112183
8968.846519	1.549369	0.216683	3215.741699
8968.847612	0.749301	0.216683	4034.727051
8968.848506	0.095398	0.216683	4120.012695
8968.849368	0.089941	0.216683	4197.541992
8968.850435	0.090055	0.216683	4293.630371
8968.851407	0.090007	0.216683	4381.117676
8968.852280	0.090037	0.216683	4459.719727
8968.853161	0.089952	0.216683	4538.967773
8968.854238	0.089982	0.216683	4635.877930
8968.855122	0.089960	0.216683	4715.402344
8968.855985	0.090077	0.216683	4793.138672
8968.856856	0.089938	0.216683	4871.474609
8969.854437	1.109901	0.239689	511.664398
8969.855322	1.557887	0.239689	1890.394409
8969.856322	1.545198	0.239689	3435.592285
8969.857380	0.604080	0.239689	4074.708496
8969.858281	0.092281	0.239689	4157.854004
8969.859141	0.089985	0.239689	4235.241211
8969.860228	0.090081	0.239689	4333.158691
8969.861211	0.089985	0.239689	4421.614258
8969.862086	0.090051	0.239689	4500.409180
8969.863079	0.090026	0.239689	4589.804687
8969.864140	0.089941	0.239689	4685.232422
8969.865013	0.090066	0.239689	4763.859863
8969.865880	0.089923	0.239689	4841.823242
8969.866983	0.090004	0.239689	4941.097168
8970.872252	1.060792	0.212349	449.775909
8970.873330	1.560959	0.212349	2132.490234
8970.874338	1.538232	0.212349	3683.028564
8970.875219	0.581733	0.212349	4195.535645
8970.876215	0.092996	0.212349	4288.159180
8970.877275	0.089908	0.212349	4383.461914
8970.878172	0.089956	0.212349	4464.152344
8970.879030	0.089963	0.212349	4541.340820
8970.880109	0.089963	0.212349	4638.411133
8970.881075	0.089960	0.212349	4725.312012
8970.881968	0.090066	0.212349	4805.740723
8970.882961	0.090022	0.212349	4895.132324
8970.884011	0.090004	0.212349	4989.636230
8970.884909	0.089919	0.212349	5070.383789
8971.879882	1.074174	0.245188	467.265503
8971.880760	1.555862	0.245188	1833.312134
8971.881625	1.550541	0.245188	3174.529785
8971.882608	0.933944	0.245188	4092.596924
8971.883557	0.101953	0.245188	4189.350586
8971.884450	0.089810	0.245188	4269.550293
8971.885362	0.090040	0.245188	4351.666992
8971.886323	0.090103	0.245188	4438.255371
8971.887246	0.089996	0.245188	4521.321777
8971.888113	0.090033	0.245188	4599.380371
8971.889058	0.089832	0.245188	4684.270996
8971.889994	0.089930	0.245188	4768.445801
8971.890914	0.089960	0.245188	4851.208984
8971.891793	0.090040	0.245188	4930.354492
8972.899791	1.076624	0.220933	469.407867
8972.900675	1.556602	0.220933	1845.443604
8972.901595	1.549460	0.220933	3270.947266
8972.902567	0.883909	0.220933	4130.106445
8972.903491	0.099181	0.220933	4221.749512
8972.904358	0.089934	0.220933	4299.722168
8972.905289	0.089919	0.220933	4383.437012
8972.906231	0.089982	0.220933	4468.199707
8972.907155	0.089960	0.220933	4551.322266
8972.908011	0.089967	0.220933	4628.333984
8972.908964	0.089974	0.220933	4714.079590
8972.909916	0.090044	0.220933	4799.801270
8972.910804	0.089930	0.220933	4879.659668
8972.911716	0.089963	0.220933	4961.706055
8973.905399	1.088416	0.251065	511.555298
8973.906290	1.558169	0.251065	1899.883789
8973.907157	1.549563	0.251065	3243.354980
8973.908122	0.892207	0.251065	4104.334961
8973.909060	0.100203	0.251065	4198.325195
8973.909963	0.089886	0.251065	4279.492676
8973.910839	0.089901	0.251065	4358.246094
8973.911801	0.089952	0.251065	4444.780273
8973.912751	0.089934	0.251065	4530.217773
8973.913640	0.090026	0.251065	4610.250488
8973.914551	0.090044	0.251065	4692.280762
8973.915470	0.089850	0.251065	4774.852539
8973.916413	0.089821	0.251065	4859.553223
8973.917298	0.089934	0.251065	4939.145020
8974.928381	1.100310	0.212168	529.249146
8974.929317	1.560095	0.212168	1989.498291
8974.930197	1.546956	0.212168	3350.819336
8974.931128	0.881034	0.212168	4171.062012
8974.932039	0.098503	0.212168	4260.798828
8974.932975	0.089897	0.212168	4344.942871
8974.933868	0.089861	0.212168	4425.188477
8974.934784	0.089824	0.212168	4507.467285
8974.935746	0.090048	0.212168	4594.093262
8974.936665	0.089810	0.212168	4676.628418
8974.937538	0.089989	0.212168	4755.188965
8974.938504	0.089923	0.212168	4842.054687
8974.939429	0.089908	0.212168	4925.220215
8974.940346	0.089945	0.212168	5007.699707
8975.932857	1.050223	0.243049	441.093811
8975.933778	1.553903	0.243049	1872.238037
8975.934736	1.546791	0.243049	3354.063721
8975.935680	0.810015	0.243049	4118.717773
8975.936570	0.098328	0.243049	4206.229492
8975.937484	0.089832	0.243049	4288.335449
8975.938441	0.090007	0.243049	4374.472656
8975.939364	0.089945	0.243049	4457.492187
8975.940232	0.089919	0.243049	4535.542480
8975.941209	0.090048	0.243049	4623.519043
8975.942155	0.089886	0.243049	4708.551758
8975.943041	0.089960	0.243049	4788.255859
8975.943929	0.090007	0.243049	4868.182129
8975.944865	0.089897	0.243049	4952.326172
8976.955842	1.062913	0.214158	454.926575
8976.956706	1.554434	0.214158	1797.957275
8976.957688	1.548047	0.214158	3318.139160
8976.958614	0.888032	0.214158	4140.457031
8976.959494	0.102231	0.214158	4230.420898
8976.960408	0.089883	0.214158	4312.573730
8976.961352	0.089949	0.214158	4397.485352
8976.962277	0.089883	0.214158	4480.626953
8976.963150	0.089993	0.214158	4559.190430
8976.964079	0.089923	0.214158	4642.729004
8976.965012	0.089835	0.214158	4726.545410
8976.965937	0.089897	0.214158	4809.700684
8976.966810	0.089993	0.214158	4888.264160
8976.967782	0.089879	0.214158	4975.626465
8977.959349	1.045536	0.244370	439.125092
8977.960317	1.558561	0.244370	1947.811890
8977.961249	1.546029	0.244370	3388.710937
8977.962171	0.859343	0.244370	4181.025391
8977.963036	0.102601	0.244370	4269.775391
8977.964012	0.089868	0.244370	4357.486816
8977.964939	0.089974	0.244370	4440.893066
8977.965835	0.090022	0.244370	4521.552734
8977.966730	0.089879	0.244370	4601.994629
8977.967674	0.089989	0.244370	4686.944336
8977.968620	0.089996	0.244370	4772.081055
8977.969516	0.090026	0.244370	4852.744141
8977.970423	0.089945	0.244370	4934.324219
8977.971379	0.089923	0.244370	5020.290527
8978.983433	1.126007	0.210455	567.507568
8978.984341	1.560784	0.210455	1984.699219
8978.985265	1.545765	0.210455	3412.986328
8978.986135	0.868623	0.210455	4168.688477
8978.987143	0.097291	0.210455	4266.758301
8978.988069	0.089956	0.210455	4350.057617
8978.988941	0.089982	0.210455	4428.521484
8978.989820	0.089967	0.210455	4507.602539
8978.990785	0.089799	0.210455	4594.258301
8978.991710	0.089908	0.210455	4677.423828
8978.992583	0.089930	0.210455	4755.933105
8978.993583	0.089941	0.210455	4845.874512
8978.994490	0.089901	0.210455	4927.415039
8978.995407	0.089967	0.210455	5009.915039
8979.986904	1.081765	0.240547	480.303741
8979.987774	1.556283	0.240547	1834.269775
8979.988644	1.548790	0.240547	3181.717285
8979.989764	0.731096	0.240547	4000.544922
8979.990670	0.094695	0.240547	4086.338379
8979.991537	0.089879	0.240547	4164.263672
8979.992601	0.089960	0.240547	4259.980957
8979.993571	0.089857	0.240547	4347.142578
8979.994444	0.089930	0.240547	4425.651855
8979.995304	0.089930	0.240547	4502.992187
8979.996423	0.090007	0.240547	4603.710449
8979.997325	0.089927	0.240547	4684.824219
8979.998201	0.089952	0.240547	4763.622559
8979.999206	0.090066	0.240547	4854.138672
8981.010877	1.052501	0.201996	443.102997
8981.011882	1.555627	0.201996	2006.508667
8981.012920	1.540613	0.201996	3605.664551
8981.013817	0.620936	0.201996	4162.644531
8981.014691	0.093798	0.201996	4244.623535
8981.015777	0.090037	0.201996	4342.403320
8981.016763	0.089857	0.201996	4431.002441
8981.017657	0.090029	0.201996	4511.488770
8981.018630	0.089978	0.201996	4599.037598
8981.019676	0.089883	0.201996	4693.055176
8981.020568	0.089985	0.201996	4773.322266
8981.021433	0.090015	0.201996	4851.185059
8981.022530	0.090037	0.201996	4949.955078
8981.023490	0.090011	0.201996	5036.365723
8982.014396	1.057764	0.237208	449.549561
8982.015449	1.560535	0.237208	2092.792480
8982.016475	1.538236	0.237208	3671.022461
8982.017375	0.558717	0.237208	4173.867676
8982.018332	0.092860	0.237208	4262.734863
8982.019389	0.089949	0.237208	4357.810547
8982.020315	0.089938	0.237208	4441.092773
8982.021177	0.089941	0.237208	4518.622070
8982.022264	0.090073	0.237208	4616.531738
8982.023249	0.090029	0.237208	4705.210449
8982.024131	0.089919	0.237208	4784.519531
8982.025124	0.090037	0.237208	4873.925781
8982.026171	0.089938	0.237208	4968.090820
8982.027066	0.090018	0.237208	5048.657227
8983.037366	1.047960	0.208010	439.095306
8983.038350	1.555496	0.208010	1969.703003
8983.039402	1.540598	0.208010	3590.412109
8983.040312	0.621808	0.208010	4156.257324
8983.041174	0.094102	0.208010	4237.373047
8983.042251	0.089989	0.208010	4334.291016
8983.043242	0.089989	0.208010	4423.470215
8983.044126	0.090037	0.208010	4503.062500
8983.045125	0.090055	0.208010	4593.027344
8983.046170	0.089989	0.208010	4687.065918
8983.047050	0.090011	0.208010	4766.275391
8983.047915	0.089967	0.208010	4844.096680
8983.049014	0.090099	0.208010	4943.115234
8983.049964	0.089974	0.208010	5028.590820
8984.040958	1.099691	0.241530	528.951416
8984.041846	1.558447	0.241530	1912.852539
8984.042715	1.548977	0.241530	3258.913574
8984.043639	0.942631	0.241530	4129.904297
8984.044587	0.102253	0.241530	4226.840332
8984.045514	0.089755	0.241530	4310.042969
8984.046386	0.089901	0.241530	4388.436523
8984.047363	0.089923	0.241530	4476.291504
8984.048319	0.090037	0.241530	4562.366699
8984.049241	0.089923	0.241530	4645.275879
8984.050108	0.089908	0.241530	4723.226562
8984.051074	0.089788	0.241530	4809.961426
8984.052023	0.090004	0.241530	4895.375000
8984.052895	0.089974	0.241530	4973.832520
8985.064947	1.100101	0.208614	520.347961
8985.065819	1.557982	0.208614	1878.908447
8985.066689	1.549453	0.208614	3226.932617
8985.067650	0.915520	0.208614	4106.747070
8985.068600	0.100605	0.208614	4202.322266
8985.069487	0.089810	0.208614	4281.983398
8985.070372	0.089835	0.208614	4361.487793
8985.071317	0.089978	0.208614	4446.517090
8985.072257	0.089868	0.208614	4530.993164
8985.073144	0.089949	0.208614	4610.777832
8985.074064	0.089952	0.208614	4693.534180
8985.075017	0.089879	0.208614	4779.188965
8985.075917	0.089967	0.208614	4860.159180
8985.076793	0.089908	0.208614	4938.918945
8986.068419	1.059752	0.236490	457.812897
8986.069288	1.554404	0.236490	1808.590210
8986.070259	1.548083	0.236490	3311.779297
8986.071184	0.872483	0.236490	4118.826172
8986.072108	0.100367	0.236490	4211.565430
8986.072966	0.089828	0.236490	4288.637695
8986.073930	0.089879	0.236490	4375.281250
8986.074872	0.089938	0.236490	4460.002441
8986.075749	0.089886	0.236490	4538.833008
8986.076663	0.089919	0.236490	4621.019531
8986.077620	0.090121	0.236490	4707.265137
8986.078538	0.089835	0.236490	4789.733887
8986.079414	0.089993	0.236490	4868.567383
8986.080386	0.089941	0.236490	4955.990234
8987.091389	1.054618	0.203591	449.267212
8987.092255	1.554133	0.203591	1795.146606
8987.093232	1.548710	0.203591	3308.236084
8987.094190	0.873398	0.203591	4144.951660
8987.095079	0.100851	0.203591	4234.607910
8987.095945	0.089901	0.203591	4312.462402
8987.096894	0.089974	0.203591	4397.848145
8987.097848	0.089905	0.203591	4483.617187
8987.098745	0.090055	0.203591	4564.396484
8987.099658	0.089956	0.203591	4646.526367
8987.100622	0.089989	0.203591	4733.275879
8987.101541	0.089919	0.203591	4815.911621
8987.102413	0.089996	0.203591	4894.388672
8987.103394	0.089923	0.203591	4982.603027
8988.095986	1.109615	0.230303	513.751953
8988.096866	1.557748	0.230303	1884.569946
8988.097733	1.550182	0.230303	3228.577637
8988.098730	0.859904	0.230303	4085.901367
8988.099661	0.098134	0.230303	4177.263672
8988.100578	0.089857	0.230303	4259.662598
8988.101451	0.090084	0.230303	4338.306152
8988.102481	0.090026	0.230303	4431.032715
8988.103375	0.089985	0.230303	4511.479492
8988.104295	0.090007	0.230303	4594.286133
8988.105161	0.089912	0.230303	4672.149902
8988.106142	0.090026	0.230303	4760.464844
8988.107059	0.089854	0.230303	4842.860352
8988.107935	0.089982	0.230303	4921.684082
8989.119947	1.064066	0.201162	464.996918
8989.120809	1.554690	0.201162	1805.139771
8989.121867	1.544143	0.201162	3438.843262
8989.122816	0.718341	0.201162	4120.548828
8989.123691	0.095724	0.201162	4204.307129
8989.124645	0.089897	0.201162	4290.069336
8989.125685	0.089938	0.201162	4383.604492
8989.126572	0.090037	0.201162	4463.466797
8989.127438	0.089993	0.201162	4541.400391
8989.128483	0.090059	0.201162	4635.511719
8989.129436	0.090000	0.201162	4721.281738
8989.130311	0.089938	0.201162	4799.977051
8989.131209	0.090095	0.201162	4880.882324
8989.132279	0.090007	0.201162	4977.189941
8990.121486	1.131801	0.243766	572.691040
8990.122475	1.563149	0.243766	2118.645752
8990.123366	1.543304	0.243766	3493.729980
8990.124357	0.643619	0.243766	4131.556641
8990.125412	0.091113	0.243766	4227.681152
8990.126309	0.089967	0.243766	4308.381836
8990.127171	0.090033	0.243766	4385.990234
8990.128263	0.089945	0.243766	4484.210449
8990.129229	0.089996	0.243766	4571.146973
8990.130093	0.090004	0.243766	4648.910156
8990.131151	0.089971	0.243766	4744.099121
8990.132183	0.089963	0.243766	4836.941406
8990.133058	0.090022	0.243766	4915.710449
8990.133919	0.089967	0.243766	4993.171875
8991.146430	1.058199	0.196743	449.734741
8991.147407	1.554928	0.196743	1968.899292
8991.148469	1.540217	0.196743	3604.609863
8991.149402	0.575526	0.196743	4141.575684
8991.150266	0.093073	0.196743	4221.990234
8991.151340	0.090033	0.196743	4318.685547
8991.152329	0.089967	0.196743	4407.663086
8991.153212	0.089985	0.196743	4487.120117
8991.154203	0.089996	0.196743	4576.306641
8991.155256	0.090029	0.196743	4671.107422
8991.156153	0.089993	0.196743	4751.831055
8991.157011	0.089934	0.196743	4828.994629
8991.158081	0.090048	0.196743	4925.345703
8991.159072	0.090055	0.196743	5014.590332
8992.149996	1.081685	0.232039	500.819977
8992.150898	1.557781	0.232039	1905.938232
8992.151824	1.547560	0.232039	3338.978516
8992.152691	0.937141	0.232039	4151.479980
8992.153618	0.101697	0.232039	4245.752930
8992.154579	0.089883	0.232039	4332.130371
8992.155467	0.090004	0.232039	4412.053711
8992.156555	0.089894	0.232039	4509.858398
8992.157509	0.089875	0.232039	4595.599609
8992.158436	0.089923	0.232039	4678.958496
8992.159298	0.089908	0.232039	4756.459473
8992.160270	0.089971	0.232039	4843.911133
8992.161217	0.089996	0.232039	4929.137695
8992.162104	0.089971	0.232039	5008.941895
8993.172981	1.085321	0.200256	512.271545
8993.173904	1.559447	0.200256	1951.641113
8993.174784	1.547981	0.200256	3313.864258
8993.175700	0.911499	0.200256	4148.797363
8993.176621	0.099441	0.200256	4240.382324
8993.177568	0.089854	0.200256	4325.473633
8993.178458	0.089952	0.200256	4405.531250
8993.179369	0.090077	0.200256	4487.591309
8993.180319	0.089985	0.200256	4573.077148
8993.181245	0.089993	0.200256	4656.410156
8993.182112	0.089879	0.200256	4734.335449
8993.183077	0.090026	0.200256	4821.209961
8993.184014	0.089883	0.200256	4905.430176
8993.184909	0.089894	0.200256	4985.885254
8994.177467	1.051362	0.224454	442.623505
8994.178419	1.553987	0.224454	1922.018921
8994.179349	1.546575	0.224454	3360.333496
8994.180278	0.849771	0.224454	4149.770508
8994.181155	0.100155	0.224454	4237.606445
8994.182132	0.089854	0.224454	4325.393555
8994.183085	0.089996	0.224454	4411.160156
8994.184008	0.089963	0.224454	4494.196289
8994.184870	0.089927	0.224454	4571.713379
8994.185838	0.089956	0.224454	4658.791016
8994.186788	0.089908	0.224454	4744.204102
8994.187656	0.089982	0.224454	4822.308105
8994.188534	0.089923	0.224454	4901.260742
8994.189500	0.089923	0.224454	4988.126465
8995.200439	1.049579	0.198088	440.823090
8995.201448	1.557231	0.198088	2012.069580
8995.202373	1.544019	0.198088	3440.286621
8995.203307	0.747935	0.198088	4138.857422
8995.204172	0.097068	0.198088	4222.821289
8995.205200	0.089963	0.198088	4315.303711
8995.206090	0.090044	0.198088	4395.442871
8995.207014	0.090026	0.198088	4478.626465
8995.207877	0.089956	0.198088	4556.258301
8995.208862	0.089886	0.198088	4644.796387
8995.209762	0.090095	0.198088	4725.881836
8995.210648	0.089952	0.198088	4805.579590
8995.211551	0.089952	0.198088	4886.806641
8995.212506	0.089960	0.198088	4972.718262
8996.204060	1.120649	0.227745	586.099609
8996.205074	1.563702	0.227745	2171.693848
8996.205950	1.542158	0.227745	3522.624512
8996.206819	0.751135	0.227745	4175.360840
8996.207871	0.093138	0.227745	4273.342285
8996.208793	0.089813	0.227745	4356.149902
8996.209660	0.089996	0.227745	4434.176758
8996.210597	0.090015	0.227745	4518.520508
8996.211634	0.089949	0.227745	4611.797363
8996.212527	0.089923	0.227745	4692.098633
8996.213391	0.089875	0.227745	4769.750977
8996.214436	0.090040	0.227745	4863.843262
8996.215392	0.090103	0.227745	4949.981445
8996.216264	0.090073	0.227745	5028.525391
8997.227079	1.184242	0.199168	667.912476
8997.228136	1.563907	0.199168	2320.962402
8997.229016	1.538536	0.199168	3674.874512
8997.229927	0.584817	0.199168	4207.642578
8997.231010	0.090688	0.199168	4305.858398
8997.231951	0.089832	0.199168	4390.389648
8997.232812	0.089996	0.199168	4467.876465
8997.233861	0.089938	0.199168	4562.221191
8997.234880	0.090073	0.199168	4654.005859
8997.235770	0.089993	0.199168	4734.099121
8997.236693	0.090114	0.199168	4817.273926
8997.237743	0.089967	0.199168	4911.739258
8997.238683	0.090095	0.199168	4996.428711
8997.239549	0.089879	0.199168	5074.264160
8998.230505	1.083310	0.226984	502.656067
8998.231393	1.558579	0.226984	1886.674316
8998.232318	1.548091	0.226984	3318.658203
8998.233272	0.840176	0.226984	4120.186035
8998.234211	0.096222	0.226984	4210.538574
8998.235108	0.089817	0.226984	4291.104492
8998.236020	0.089894	0.226984	4373.087402
8998.236973	0.089861	0.226984	4458.724609
8998.237896	0.089974	0.226984	4541.770996
8998.238760	0.090051	0.226984	4619.575195
8998.239726	0.089930	0.226984	4706.447754
8998.240670	0.089919	0.226984	4791.331543
8998.241546	0.089901	0.226984	4870.084961
8998.242417	0.089938	0.226984	4948.420898
8999.254462	1.058163	0.202866	450.777405
8999.255385	1.555444	0.202866	1886.452637
8999.256320	1.547212	0.202866	3333.095703
8999.257243	0.874094	0.202866	4139.884766
8999.258118	0.102224	0.202866	4229.331055
8999.259098	0.089919	0.202866	4317.452148
8999.260041	0.089938	0.202866	4402.263672
8999.260940	0.089989	0.202866	4483.163574
8999.261802	0.089828	0.202866	4560.595215
8999.262766	0.089938	0.202866	4647.295410
8999.263720	0.090015	0.202866	4733.169434
8999.264594	0.090022	0.202866	4811.848633
8999.265509	0.089875	0.202866	4894.084473
8999.266453	0.090007	0.202866	4979.051270
9000.258017	1.096663	0.225235	505.561462
9000.258898	1.557275	0.225235	1877.520996
9000.259767	1.550358	0.225235	3224.781738
9000.260750	0.900604	0.225235	4110.075684
9000.261703	0.099536	0.225235	4204.933594
9000.262618	0.089894	0.225235	4287.186523
9000.263483	0.090007	0.225235	4365.042969
9000.264519	0.089971	0.225235	4458.252441
9000.265392	0.090062	0.225235	4536.876953
9000.266265	0.090007	0.225235	4615.453125
9000.267169	0.089982	0.225235	4696.796387
9000.268178	0.090033	0.225235	4787.639648
9000.269103	0.089956	0.225235	4870.849121
9000.269981	0.090011	0.225235	4949.878906
9001.281035	1.119825	0.199370	565.511780
9001.281920	1.560231	0.199370	1946.315918
9001.282784	1.548625	0.199370	3284.328369
9001.283838	0.728796	0.199370	4052.479736
9001.284816	0.093043	0.199370	4143.476074
9001.285690	0.089967	0.199370	4222.107422
9001.286569	0.090018	0.199370	4301.233398
9001.287674	0.089938	0.199370	4400.614746
9001.288551	0.089927	0.199370	4479.480469
9001.289408	0.089945	0.199370	4556.563477
9001.290468	0.090044	0.199370	4652.010254
9001.291420	0.089952	0.199370	4737.645020
9001.292304	0.089985	0.199370	4817.191895
9001.293164	0.090007	0.199370	4894.598145
9002.284517	1.106678	0.231306	507.965424
9002.285400	1.557360	0.231306	1883.114014
9002.286382	1.546113	0.231306	3401.397217
9002.287434	0.637892	0.231306	4072.459473
9002.288334	0.092758	0.231306	4155.941406
9002.289191	0.089883	0.231306	4232.971191
9002.290255	0.089927	0.231306	4328.653320
9002.291244	0.089883	0.231306	4417.547363
9002.292132	0.090015	0.231306	4497.480469
9002.293116	0.090081	0.231306	4586.119629
9002.294162	0.090015	0.231306	4680.274902
9002.295076	0.089930	0.231306	4762.471191
9002.295948	0.090026	0.231306	4840.973633
9002.296933	0.090011	0.231306	4929.634277
9003.308480	1.053237	0.198290	448.679108
9003.309429	1.553950	0.198290	1923.377808
9003.310497	1.541195	0.198290	3569.374023
9003.311436	0.611902	0.198290	4143.949707
9003.312293	0.093567	0.198290	4224.136719
9003.313346	0.089993	0.198290	4318.898926
9003.314365	0.089941	0.198290	4410.549316
9003.315249	0.090011	0.198290	4490.119141
9003.316228	0.090092	0.198290	4578.318848
9003.317277	0.089930	0.198290	4672.655762
9003.318198	0.090000	0.198290	4755.545898
9003.319068	0.090026	0.198290	4833.868164
9003.320129	0.089989	0.198290	4929.346680
9003.321122	0.089952	0.198290	5018.669434
9004.309983	1.079795	0.236535	494.546051
9004.310872	1.557876	0.236535	1879.497803
9004.311796	1.548333	0.236535	3310.157227
9004.312752	0.846259	0.236535	4119.180664
9004.313676	0.097738	0.236535	4209.490723
9004.314558	0.089872	0.236535	4288.757812
9004.315488	0.090037	0.236535	4372.491699
9004.316433	0.090092	0.236535	4457.628418
9004.317354	0.089927	0.236535	4540.451172
9004.318211	0.090029	0.236535	4617.606445
9004.319164	0.090048	0.236535	4703.421875
9004.320127	0.089949	0.236535	4790.042480
9004.321014	0.090029	0.236535	4869.898437
9004.321904	0.089941	0.236535	4949.946289
9005.335027	1.096739	0.202060	511.080566
9005.335927	1.559121	0.202060	1914.289429
9005.336805	1.548790	0.202060	3274.127441
9005.337726	0.939584	0.202060	4139.484375
9005.338690	0.100807	0.202060	4236.662109
9005.339609	0.089711	0.202060	4319.106445
9005.340484	0.089938	0.202060	4397.801758
9005.341412	0.089879	0.202060	4481.209473
9005.342364	0.089941	0.202060	4566.833496
9005.343265	0.089945	0.202060	4647.874023
9005.344141	0.089923	0.202060	4726.646484
9005.345091	0.089941	0.202060	4812.090820
9005.346042	0.089996	0.202060	4897.677246
9005.346934	0.089938	0.202060	4977.901855
9006.339523	1.063433	0.225646	453.022278
9006.340414	1.554097	0.225646	1837.722412
9006.341392	1.546677	0.225646	3350.372803
9006.342321	0.844940	0.225646	4135.322266
9006.343194	0.100909	0.225646	4223.416016
9006.344098	0.089864	0.225646	4304.653320
9006.345056	0.090033	0.225646	4390.904785
9006.345980	0.089993	0.225646	4474.058105
9006.346855	0.089993	0.225646	4552.801758
9006.347813	0.089912	0.225646	4638.937500
9006.348723	0.090018	0.225646	4720.854004
9006.349652	0.089923	0.225646	4804.392578
9006.350520	0.089927	0.225646	4882.449219
9006.351486	0.089938	0.225646	4969.329102
9007.361511	1.088064	0.200324	501.597473
9007.362399	1.557741	0.200324	1884.871094
9007.363373	1.546655	0.200324	3391.313477
9007.364336	0.765677	0.200324	4128.661133
9007.365259	0.095735	0.200324	4217.024414
9007.366121	0.089916	0.200324	4294.531738
9007.367135	0.089846	0.200324	4385.635742
9007.368035	0.089912	0.200324	4466.556641
9007.368910	0.089938	0.200324	4545.251953
9007.369820	0.090022	0.200324	4627.171875
9007.370824	0.089963	0.200324	4717.495117
9007.371738	0.090048	0.200324	4799.798828
9007.372634	0.089938	0.200324	4880.382812
9007.373642	0.089963	0.200324	4971.065918
9008.366128	1.112337	0.227201	603.998718
9008.367152	1.563680	0.227201	2205.207520
9008.368029	1.540635	0.227201	3556.344238
9008.368906	0.687327	0.227201	4159.129883
9008.369946	0.092157	0.227201	4254.973145
9008.370878	0.089872	0.227201	4338.733887
9008.371754	0.089963	0.227201	4417.541992
9008.372698	0.090095	0.227201	4502.591797
9008.373738	0.089908	0.227201	4596.096680
9008.374624	0.090059	0.227201	4675.888672
9008.375485	0.089989	0.227201	4753.369141
9008.376527	0.089974	0.227201	4847.122559
9008.377481	0.089927	0.227201	4932.912598
9008.378354	0.089960	0.227201	5011.447266
9009.389122	1.169008	0.198943	655.813232
9009.390169	1.563776	0.198943	2293.086426
9009.391066	1.538481	0.198943	3673.104248
9009.391932	0.586146	0.198943	4180.707031
9009.393039	0.090809	0.198943	4281.232910
9009.393990	0.089985	0.198943	4366.809082
9009.394860	0.090004	0.198943	4445.112305
9009.395907	0.089978	0.198943	4539.319336
9009.396947	0.089971	0.198943	4632.888672
9009.397838	0.089886	0.198943	4712.977539
9009.398748	0.089938	0.198943	4794.820801
9009.399821	0.089810	0.198943	4891.186523
9009.400761	0.089989	0.198943	4975.776367
9009.401631	0.089952	0.198943	5054.035156
9010.393533	1.054995	0.227906	450.482880
9010.394398	1.553961	0.227906	1794.659302
9010.395391	1.547867	0.227906	3331.691650
9010.396345	0.844255	0.227906	4137.111328
9010.397240	0.099218	0.227906	4225.911133
9010.398152	0.089810	0.227906	4307.817383
9010.399070	0.089974	0.227906	4390.414062
9010.400023	0.089974	0.227906	4476.159668
9010.400898	0.089971	0.227906	4554.884277
9010.401882	0.090004	0.227906	4643.447754
9010.402941	0.090073	0.227906	4738.835449
9010.403912	0.090044	0.227906	4826.268066
9010.404778	0.090037	0.227906	4904.239746
9010.405791	0.090114	0.227906	4995.524902
9011.414495	1.070087	0.200425	491.169739
9011.415388	1.557367	0.200425	1881.898437
9011.416317	1.547900	0.200425	3319.897949
9011.417191	0.955170	0.200425	4154.716309
9011.418151	0.102700	0.200425	4253.308594
9011.419084	0.089813	0.200425	4337.104492
9011.419993	0.090037	0.200425	4418.947754
9011.420867	0.089927	0.200425	4497.543945
9011.421831	0.089941	0.200425	4584.247559
9011.422769	0.089861	0.200425	4668.537109
9011.423662	0.089993	0.200425	4748.900391
9011.424577	0.089989	0.200425	4831.240234
9011.425512	0.089934	0.200425	4915.328613
9011.426434	0.089978	0.200425	4998.288574
9012.422107	1.084545	0.225739	482.622375
9012.422984	1.556477	0.225739	1847.652588
9012.423909	1.549043	0.225739	3280.517578
9012.424857	0.883491	0.225739	4118.067383
9012.425788	0.098983	0.225739	4210.220703
9012.426667	0.089897	0.225739	4289.240723
9012.427577	0.089967	0.225739	4371.110840
9012.428532	0.089967	0.225739	4457.029297
9012.429459	0.089934	0.225739	4540.398437
9012.430324	0.089868	0.225739	4618.134277
9012.431292	0.089941	0.225739	4705.197754
9012.432241	0.089945	0.225739	4790.555664
9012.433136	0.089934	0.225739	4871.046875
9012.434057	0.090022	0.225739	4953.957031
9013.439930	1.050791	0.201009	442.383026
9013.440887	1.557327	0.201009	1932.744629
9013.441820	1.545634	0.201009	3374.820801
9013.442744	0.829124	0.201009	4140.931152
9013.443612	0.100093	0.201009	4227.811523
9013.444578	0.089963	0.201009	4314.716309
9013.445522	0.090004	0.201009	4399.679687
9013.446414	0.089993	0.201009	4479.953125
9013.447331	0.089901	0.201009	4562.392578
9013.448278	0.089919	0.201009	4647.546387
9013.449203	0.089864	0.201009	4730.670898
9013.450083	0.089974	0.201009	4809.848145
9013.451015	0.089857	0.201009	4893.595215
9013.451947	0.089938	0.201009	4977.416992
9014.449595	1.057987	0.221179	448.586517
9014.450564	1.557997	0.221179	1958.285522
9014.451497	1.545736	0.221179	3400.457275
9014.452395	0.850470	0.221179	4164.179199
9014.453258	0.101843	0.221179	4252.069824
9014.454229	0.089769	0.221179	4339.235840
9014.455167	0.089993	0.221179	4423.648926
9014.456050	0.090022	0.221179	4503.138184
9014.456972	0.089974	0.221179	4586.094727
9014.457898	0.089974	0.221179	4669.411133
9014.458812	0.089901	0.221179	4751.580566
9014.459677	0.089883	0.221179	4829.329102
9014.460641	0.089996	0.221179	4916.085449
9014.461590	0.089828	0.221179	5001.332031
9015.466501	1.141117	0.198580	570.558472
9015.467399	1.560432	0.198580	1971.826538
9015.468330	1.545948	0.198580	3411.104492
9015.469202	0.864620	0.198580	4165.053711
9015.470214	0.095914	0.198580	4262.119141
9015.471133	0.089923	0.198580	4344.758301
9015.472011	0.089974	0.198580	4423.755859
9015.472930	0.089835	0.198580	4506.314453
9015.473861	0.089875	0.198580	4589.988770
9015.474809	0.089996	0.198580	4675.305176
9015.475699	0.090011	0.198580	4755.415039
9015.476602	0.090000	0.198580	4836.685059
9015.477564	0.089974	0.198580	4923.240234
9015.478479	0.090048	0.198580	5005.633789
9016.478149	1.067340	0.218710	456.821533
9016.479112	1.555177	0.218710	1954.456909
9016.480062	1.544978	0.218710	3422.186035
9016.480990	0.793583	0.218710	4158.630859
9016.481852	0.098284	0.218710	4243.351562
9016.482881	0.089890	0.218710	4335.848633
9016.483780	0.089861	0.218710	4416.633301
9016.484681	0.089923	0.218710	4497.653809
9016.485560	0.089982	0.218710	4576.747559
9016.486522	0.089883	0.218710	4663.214844
9016.487449	0.089894	0.218710	4746.546387
9016.488326	0.089949	0.218710	4825.431641
9016.489309	0.089993	0.218710	4913.894531
9016.490233	0.089846	0.218710	4996.912598
9017.492971	1.107491	0.196469	514.983521
9017.493854	1.557989	0.196469	1890.688232
9017.494715	1.549032	0.196469	3224.404785
9017.495777	0.765978	0.196469	4037.873291
9017.496706	0.094911	0.196469	4126.045410
9017.497583	0.089930	0.196469	4204.914551
9017.498557	0.090004	0.196469	4292.578125
9017.499563	0.089967	0.196469	4383.084961
9017.500457	0.090004	0.196469	4463.548340
9017.501331	0.090029	0.196469	4542.233887
9017.502279	0.089963	0.196469	4627.519043
9017.503246	0.089897	0.196469	4714.449707
9017.504164	0.089952	0.196469	4797.025879
9017.505027	0.090059	0.196469	4874.746582
9018.506692	1.065809	0.217126	459.363800
9018.507572	1.555679	0.217126	1828.361084
9018.508558	1.547263	0.217126	3353.962646
9018.509572	0.707681	0.217126	4071.550781
9018.510458	0.095226	0.217126	4155.920898
9018.511325	0.089952	0.217126	4233.909668
9018.512414	0.090055	0.217126	4331.979492
9018.513341	0.089930	0.217126	4415.345215
9018.514220	0.090022	0.217126	4494.474609
9018.515200	0.090066	0.217126	4582.739258
9018.516195	0.089949	0.217126	4672.238281
9018.517073	0.090037	0.217126	4751.290527
9018.517930	0.089927	0.217126	4828.357910
9018.519000	0.089978	0.217126	4924.634277
9019.517365	1.053669	0.206778	441.487488
9019.518414	1.560483	0.206778	2078.434570
9019.519425	1.539382	0.206778	3634.750000
9019.520323	0.602761	0.206778	4176.029297
9019.521302	0.093391	0.206778	4267.458984
9019.522352	0.089967	0.206778	4361.924316
9019.523263	0.089938	0.206778	4443.857422
9019.524126	0.090007	0.206778	4521.533691
9019.525198	0.090048	0.206778	4618.064941
9019.526185	0.090015	0.206778	4706.909180
9019.527060	0.089993	0.206778	4785.652832
9019.528059	0.090018	0.206778	4875.581055
9019.529106	0.089963	0.206778	4969.772949
9019.530001	0.089985	0.206778	5050.310059
9020.535279	1.088225	0.207011	507.112915
9020.536175	1.558715	0.207011	1903.721069
9020.537094	1.548358	0.207011	3326.662109
9020.538039	0.851730	0.207011	4131.546875
9020.538969	0.098177	0.207011	4222.852051
9020.539844	0.089974	0.207011	4301.579590
9020.540758	0.090026	0.207011	4383.862793
9020.541715	0.089963	0.207011	4469.957520
9020.542639	0.089912	0.207011	4553.036133
9020.543517	0.090000	0.207011	4632.056152
9020.544593	0.090022	0.207011	4728.919922
9020.545640	0.089938	0.207011	4823.084961
9020.546551	0.090018	0.207011	4905.091797
9020.547416	0.089949	0.207011	4982.897461
9021.543956	1.118199	0.201094	561.336121
9021.544882	1.560915	0.201094	2006.743896
9021.545751	1.546710	0.201094	3350.834961
9021.546670	0.870546	0.201094	4150.866211
9021.547603	0.096808	0.201094	4241.187988
9021.548548	0.089656	0.201094	4325.912598
9021.549436	0.089813	0.201094	4405.666992
9021.550343	0.089883	0.201094	4487.190918
9021.551300	0.089967	0.201094	4573.289551
9021.552228	0.089905	0.201094	4656.721191
9021.553092	0.089901	0.201094	4734.395996
9021.554056	0.090055	0.201094	4821.208984
9021.554989	0.090018	0.201094	4905.196289
9021.555873	0.090018	0.201094	4984.772461
9022.561733	1.074071	0.213332	466.146851
9022.562606	1.555265	0.213332	1823.893066
9022.563524	1.549065	0.213332	3245.934570
9022.564497	0.879404	0.213332	4101.594727
9022.565426	0.099276	0.213332	4193.822266
9022.566291	0.089901	0.213332	4271.586914
9022.567266	0.090011	0.213332	4359.347656
9022.568213	0.090033	0.213332	4444.608887
9022.569101	0.090092	0.213332	4524.610352
9022.569986	0.089934	0.213332	4604.202148
9022.570923	0.089960	0.213332	4688.494629
9022.571851	0.089875	0.213332	4771.898926
9022.572741	0.089982	0.213332	4851.982422
9022.573653	0.090073	0.213332	4934.129395
9023.571397	1.060078	0.199377	453.713440
9023.572265	1.554492	0.199377	1803.012695
9023.573259	1.547516	0.199377	3341.243408
9023.574211	0.845987	0.199377	4146.623535
9023.575101	0.098969	0.199377	4234.705566
9023.575982	0.089839	0.199377	4313.853516
9023.576925	0.089777	0.199377	4398.512695
9023.577866	0.089897	0.199377	4483.106445
9023.578737	0.089967	0.199377	4561.467773
9023.579649	0.089941	0.199377	4643.494141
9023.580599	0.089978	0.199377	4728.973145
9023.581521	0.089868	0.199377	4811.831543
9023.582399	0.089912	0.199377	4890.774414
9023.583359	0.090081	0.199377	4977.251953
9024.589300	1.134555	0.214012	547.989807
9024.590269	1.560956	0.214012	2060.555908
9024.591194	1.543792	0.214012	3488.562988
9024.592068	0.799948	0.214012	4187.717285
9024.593049	0.096119	0.214012	4282.010254
9024.593988	0.089952	0.214012	4366.475586
9024.594861	0.090022	0.214012	4445.064941
9024.595733	0.089850	0.214012	4523.414062
9024.596696	0.089949	0.214012	4610.034668
9024.597646	0.089843	0.214012	4695.385254
9024.598540	0.089923	0.214012	4775.776367
9024.599444	0.089897	0.214012	4857.043457
9024.600394	0.090066	0.214012	4942.605957
9024.601320	0.090121	0.214012	5026.057617
9025.598972	1.099054	0.198608	538.536438
9025.599908	1.560278	0.198608	1998.957031
9025.600834	1.545253	0.198608	3429.860840
9025.601701	0.853074	0.198608	4169.475586
9025.602652	0.098390	0.198608	4263.044434
9025.603582	0.089894	0.198608	4346.645508
9025.604502	0.090051	0.198608	4429.492676
9025.605367	0.089934	0.198608	4507.285645
9025.606338	0.089879	0.198608	4594.558105
9025.607284	0.089978	0.198608	4679.677246
9025.608177	0.089996	0.198608	4760.043945
9025.609088	0.089985	0.198608	4842.020508
9025.610049	0.090015	0.198608	4928.524414
9025.610974	0.090004	0.198608	5011.777832
9026.616790	1.074155	0.212409	474.776611
9026.617664	1.556327	0.212409	1835.006348
9026.618553	1.549988	0.212409	3212.945557
9026.619516	0.909166	0.212409	4088.472656
9026.620473	0.099910	0.212409	4184.086426
9026.621363	0.089901	0.212409	4264.098633
9026.622267	0.089919	0.212409	4345.385742
9026.623214	0.090135	0.212409	4430.744141
9026.624140	0.090004	0.212409	4514.087402
9026.625004	0.089949	0.212409	4591.803223
9026.625956	0.089974	0.212409	4677.458984
9026.626866	0.089971	0.212409	4759.332520
9026.627784	0.089974	0.212409	4841.929199
9026.628661	0.089960	0.212409	4920.823730
9027.624374	1.046949	0.203535	442.859589
9027.625340	1.558901	0.203535	1948.758423
9027.626270	1.545791	0.203535	3386.344238
9027.627202	0.809875	0.203535	4141.148437
9027.628063	0.100045	0.203535	4227.287109
9027.629040	0.089901	0.203535	4315.120605
9027.629981	0.089963	0.203535	4399.776367
9027.630855	0.089930	0.203535	4478.375488
9027.631726	0.089938	0.203535	4556.711426
9027.632693	0.089901	0.203535	4643.645996
9027.633639	0.089963	0.203535	4728.751465
9027.634536	0.089952	0.203535	4809.438965
9027.635449	0.089985	0.203535	4891.595703
9027.636406	0.090000	0.203535	4977.725586
9028.644340	1.083750	0.212542	521.283752
9028.645346	1.563182	0.212542	2093.845215
9028.646245	1.543037	0.212542	3481.035645
9028.647127	0.779128	0.212542	4168.227051
9028.648135	0.096951	0.212542	4265.953125
9028.649041	0.090000	0.212542	4347.493164
9028.649958	0.089967	0.212542	4429.993164
9028.650819	0.090011	0.212542	4507.492676
9028.651833	0.089897	0.212542	4598.648926
9028.652729	0.089952	0.212542	4679.246094
9028.653639	0.089989	0.212542	4761.136230
9028.654513	0.089989	0.212542	4839.786621
9028.655488	0.090007	0.212542	4927.543945
9028.656401	0.089985	0.212542	5009.700684
9029.650995	1.166711	0.205617	618.357056
9029.651964	1.563362	0.205617	2133.254639
9029.652834	1.543608	0.205617	3476.193848
9029.653710	0.777656	0.205617	4157.420898
9029.654829	0.092369	0.205617	4260.782227
9029.655700	0.089861	0.205617	4339.050781
9029.656566	0.089960	0.205617	4416.956055
9029.657600	0.089956	0.205617	4509.970703
9029.658574	0.089817	0.205617	4597.452148
9029.659501	0.089974	0.205617	4680.858398
9029.660367	0.089945	0.205617	4758.750977
9029.661462	0.090029	0.205617	4857.333008
9029.662365	0.089919	0.205617	4938.530273
9029.663229	0.089985	0.205617	5016.277832
9030.672827	1.053582	0.202451	443.557861
9030.673884	1.560066	0.202451	2092.547607
9030.674913	1.538489	0.202451	3675.652344
9030.675792	0.583839	0.202451	4188.846680
9030.676740	0.093303	0.202451	4277.298340
9030.677793	0.089897	0.202451	4371.960449
9030.678724	0.089905	0.202451	4455.661621
9030.679587	0.089956	0.202451	4533.293457
9030.680633	0.090015	0.202451	4627.448730
9030.681640	0.089912	0.202451	4717.990234
9030.682530	0.089982	0.202451	4798.073730
9030.683498	0.089963	0.202451	4885.158203
9030.684545	0.089938	0.202451	4979.323242
9030.685465	0.089886	0.202451	5062.018555
9031.677389	1.077704	0.206556	474.189697
9031.678266	1.556195	0.206556	1838.972778
9031.679130	1.550753	0.206556	3178.823486
9031.680217	0.788071	0.206556	4035.457031
9031.681247	0.093702	0.206556	4131.970703
9031.682144	0.090044	0.206556	4212.740234
9031.683004	0.089945	0.206556	4290.092773
9031.684086	0.090018	0.206556	4387.492676
9031.685054	0.089927	0.206556	4474.541992
9031.685925	0.090029	0.206556	4552.957520
9031.686942	0.090000	0.206556	4644.487305
9031.687986	0.089945	0.206556	4738.390137
9031.688866	0.089978	0.206556	4817.570801
9031.689738	0.089941	0.206556	4895.999512
9032.700368	1.086566	0.200965	474.829376
9032.701249	1.556364	0.200965	1845.985718
9032.702179	1.547955	0.200965	3285.583984
9032.703146	0.850745	0.200965	4108.253906
9032.704075	0.099159	0.200965	4200.372559
9032.704940	0.090000	0.200965	4278.222656
9032.705904	0.090015	0.200965	4364.996582
9032.706809	0.089963	0.200965	4446.413574
9032.707709	0.090033	0.200965	4527.443359
9032.708580	0.090099	0.200965	4605.919434
9032.709552	0.089989	0.200965	4693.388672
9032.710504	0.089872	0.200965	4778.946777
9032.711394	0.090044	0.200965	4859.085937
9032.712305	0.089938	0.200965	4941.019043
9033.705921	1.058610	0.199059	455.202118
9033.706793	1.554708	0.199059	1810.907715
9033.707755	1.549255	0.199059	3301.291504
9033.708642	0.954155	0.199059	4147.626953
9033.709578	0.103066	0.199059	4244.097168
9033.710453	0.089934	0.199059	4322.789551
9033.711423	0.089993	0.199059	4410.082520
9033.712369	0.090121	0.199059	4495.336914
9033.713290	0.089927	0.199059	4578.159668
9033.714159	0.090066	0.199059	4656.426758
9033.715137	0.089952	0.199059	4744.400391
9033.716084	0.089978	0.199059	4829.609375
9033.716973	0.090022	0.199059	4909.638672
9033.717898	0.090037	0.199059	4992.922363
9034.726843	1.050483	0.204083	445.404999
9034.727824	1.556107	0.204083	1971.946167
9034.728704	1.547223	0.204083	3333.502441
9034.729622	0.879840	0.204083	4141.195801
9034.730496	0.102704	0.204083	4230.958984
9034.731455	0.089872	0.204083	4317.145996
9034.732375	0.089985	0.204083	4399.932617
9034.733253	0.089974	0.204083	4478.930176
9034.734248	0.089982	0.204083	4568.461914
9034.735144	0.089971	0.204083	4649.075684
9034.736068	0.090015	0.204083	4732.249023
9034.736945	0.090033	0.204083	4811.208008
9034.737920	0.090037	0.204083	4898.993652
9034.738837	0.090037	0.204083	4981.557129
9035.734490	1.091704	0.192570	493.450226
9035.735368	1.556964	0.192570	1860.464722
9035.736231	1.550050	0.192570	3198.157715
9035.737322	0.762938	0.192570	4030.523437
9035.738252	0.094647	0.192570	4118.545410
9035.739131	0.089934	0.192570	4197.597656
9035.740100	0.090070	0.192570	4284.875000
9035.741111	0.089971	0.192570	4375.835449
9035.741986	0.089949	0.192570	4454.540527
9035.742849	0.090026	0.192570	4532.232422
9035.743909	0.089982	0.192570	4627.612793
9035.744841	0.089897	0.192570	4711.397461
9035.745707	0.089897	0.192570	4789.248535
9035.746652	0.089982	0.192570	4874.281250
9036.752309	1.054094	0.208884	442.719604
9036.753380	1.561263	0.208884	2114.832520
9036.754389	1.538474	0.208884	3667.152832
9036.755289	0.566169	0.208884	4176.705078
9036.756265	0.092823	0.208884	4267.300781
9036.757312	0.090007	0.208884	4361.538574
9036.758226	0.090004	0.208884	4443.801758
9036.759092	0.090048	0.208884	4521.783203
9036.760167	0.090004	0.208884	4618.537109
9036.761168	0.090037	0.208884	4708.663574
9036.762043	0.090070	0.208884	4787.474609
9036.763046	0.090125	0.208884	4877.869629
9036.764091	0.090066	0.208884	4971.988281
9036.764978	0.090055	0.208884	5051.867187
9037.759995	1.129746	0.198765	540.018616
9037.760887	1.559022	0.198765	1930.666504
9037.761751	1.548461	0.198765	3268.536621
9037.762711	0.863965	0.198765	4097.942871
9037.763662	0.098965	0.198765	4192.058594
9037.764555	0.089927	0.198765	4272.363281
9037.765476	0.090037	0.198765	4355.287109
9037.766432	0.089989	0.198765	4441.316406
9037.767356	0.089960	0.198765	4524.438965
9037.768235	0.090066	0.198765	4603.606934
9037.769182	0.090000	0.198765	4688.836914
9037.770118	0.090051	0.198765	4773.125000
9037.771043	0.090026	0.198765	4856.398926
9037.771909	0.089960	0.198765	4934.304199
9038.778893	1.154070	0.207398	568.956421
9038.779818	1.560883	0.207398	2012.772827
9038.780735	1.545333	0.207398	3429.843262
9038.781603	0.850485	0.207398	4168.063965
9038.782550	0.098229	0.207398	4261.086426
9038.783494	0.090011	0.207398	4346.056641
9038.784388	0.090055	0.207398	4426.565918
9038.785302	0.089985	0.207398	4508.812500
9038.786243	0.089952	0.207398	4593.457520
9038.787153	0.090059	0.207398	4675.410645
9038.788015	0.090070	0.207398	4753.050781
9038.788980	0.089912	0.207398	4839.815918
9038.789929	0.089908	0.207398	4925.139160
9038.790809	0.089985	0.207398	5004.326172
9039.788544	1.130951	0.191369	546.249268
9039.789453	1.560289	0.191369	1964.552246
9039.790343	1.547274	0.191369	3341.626221
9039.791275	0.840461	0.191369	4124.936523
9039.792244	0.097006	0.191369	4218.935059
9039.793166	0.089938	0.191369	4301.857422
9039.794041	0.090033	0.191369	4380.636230
9039.795000	0.089967	0.191369	4466.914551
9039.795929	0.090007	0.191369	4550.531250
9039.796860	0.090026	0.191369	4634.345215
9039.797722	0.090092	0.191369	4712.003906
9039.798691	0.090055	0.191369	4799.267090
9039.799651	0.090070	0.191369	4885.733887
9039.800521	0.090095	0.191369	4964.116699
9040.806334	1.062568	0.203213	454.779236
9040.807200	1.554100	0.203213	1800.630127
9040.808178	1.547567	0.203213	3314.150879
9040.809128	0.848687	0.203213	4120.403320
9040.810016	0.099917	0.203213	4209.129395
9040.810933	0.089886	0.203213	4291.555176
9040.811894	0.089923	0.203213	4377.971191
9040.812810	0.089963	0.203213	4460.377441
9040.813675	0.090125	0.203213	4538.334961
9040.814628	0.089923	0.203213	4624.031738
9040.815551	0.089985	0.203213	4707.088379
9040.816461	0.090044	0.203213	4789.028320
9040.817341	0.089989	0.203213	4868.218750
9040.818322	0.090018	0.203213	4956.526855
9041.815990	1.057383	0.194749	444.100800
9041.817055	1.562179	0.194749	2107.821289
9041.817946	1.543711	0.194749	3483.267578
9041.818831	0.791418	0.194749	4183.672852
9041.819756	0.099001	0.194749	4275.249023
9041.820751	0.089916	0.194749	4364.715332
9041.821660	0.090000	0.194749	4446.525391
9041.822541	0.089949	0.194749	4525.770020
9041.823540	0.089974	0.194749	4615.654297
9041.824424	0.089949	0.194749	4695.168945
9041.825341	0.090007	0.194749	4777.705566
9041.826213	0.090011	0.194749	4856.195312
9041.827231	0.089971	0.194749	4947.785645
9041.828127	0.089883	0.194749	5028.320801
9042.831813	1.067834	0.206391	462.372345
9042.832675	1.553969	0.206391	1801.893188
9042.833733	1.544835	0.206391	3436.328857
9042.834612	0.835693	0.206391	4170.903320
9042.835480	0.100865	0.206391	4258.454590
9042.836467	0.089894	0.206391	4347.179687
9042.837400	0.090018	0.206391	4431.166992
9042.838320	0.089971	0.206391	4513.939941
9042.839196	0.090059	0.206391	4592.831055
9042.840208	0.089952	0.206391	4683.862793
9042.841113	0.089919	0.206391	4765.239746
9042.841987	0.090022	0.206391	4843.918945
9042.842871	0.090037	0.206391	4923.511230
9042.843913	0.089916	0.206391	5017.203613
9043.844558	1.074346	0.191051	472.712097
9043.845420	1.554763	0.191051	1812.917969
9043.846508	1.543473	0.191051	3492.216309
9043.847440	0.699463	0.191051	4144.115723
9043.848308	0.095431	0.191051	4226.949707
9043.849275	0.089963	0.191051	4313.944336
9043.850299	0.090022	0.191051	4406.126953
9043.851191	0.090033	0.191051	4486.436523
9043.852053	0.089963	0.191051	4563.984863
9043.853118	0.089982	0.191051	4659.815430
9043.854059	0.090088	0.191051	4744.587891
9043.854939	0.090007	0.191051	4823.794434
9043.855882	0.090055	0.191051	4908.716309
9043.856918	0.089996	0.191051	5001.952637
9044.858297	1.048649	0.210419	441.481110
9044.859284	1.555913	0.210419	1977.167358
9044.860293	1.541528	0.210419	3532.569336
9044.861189	0.704586	0.210419	4163.878418
9044.862053	0.095834	0.210419	4246.678711
9044.863144	0.089894	0.210419	4344.752930
9044.864063	0.090037	0.210419	4427.496582
9044.864941	0.089938	0.210419	4506.461914
9044.865925	0.090044	0.210419	4595.064941
9044.866921	0.090106	0.210419	4684.810547
9044.867808	0.090022	0.210419	4764.660156
9044.868667	0.090106	0.210419	4842.061523
9044.869742	0.089956	0.210419	4938.764160
9044.870659	0.089967	0.210419	5021.264160
9045.871035	1.055676	0.191220	448.662445
9045.871899	1.553712	0.191220	1791.069702
9045.872986	1.543323	0.191220	3468.661621
9045.873923	0.706223	0.191220	4130.392578
9045.874795	0.095702	0.191220	4213.844727
9045.875770	0.090059	0.191220	4301.651855
9045.876792	0.090077	0.191220	4393.710449
9045.877671	0.090051	0.191220	4472.865723
9045.878535	0.090059	0.191220	4550.676270
9045.879608	0.090059	0.191220	4647.309082
9045.880537	0.089945	0.191220	4730.868164
9045.881406	0.089963	0.191220	4809.046387
9045.882378	0.090103	0.191220	4896.625977
9045.883395	0.089927	0.191220	4988.081543
9046.883785	1.069457	0.215926	467.352631
9046.884651	1.554576	0.215926	1813.615845
9046.885709	1.544055	0.215926	3447.226318
9046.886715	0.623247	0.215926	4074.212891
9046.887595	0.093640	0.215926	4156.616211
9046.888586	0.089989	0.215926	4245.795410
9046.889628	0.089974	0.215926	4339.548828
9046.890529	0.089996	0.215926	4420.635742
9046.891388	0.089982	0.215926	4497.930176
9046.892459	0.090062	0.215926	4594.386719
9046.893454	0.089974	0.215926	4683.911133
9046.894328	0.089989	0.215926	4762.561523
9046.895303	0.090139	0.215926	4850.447266
9046.896351	0.090004	0.215926	4944.770996
9047.899657	1.124300	0.192654	565.523132
9047.900549	1.560231	0.192654	1957.249023
9047.901412	1.546494	0.192654	3291.873535
9047.902526	0.651984	0.192654	4018.183350
9047.903478	0.092153	0.192654	4105.913086
9047.904338	0.090015	0.192654	4183.325684
9047.905382	0.090022	0.192654	4277.308594
9047.906424	0.089985	0.192654	4371.073242
9047.907298	0.089868	0.192654	4449.618164
9047.908185	0.090022	0.192654	4529.467773
9047.909265	0.090018	0.192654	4626.687500
9047.910218	0.090051	0.192654	4712.506348
9047.911089	0.090011	0.192654	4790.905762
9047.912116	0.090095	0.192654	4883.433594
9048.910269	1.059657	0.210738	452.473541
9048.911235	1.557319	0.210738	1956.843994
9048.912148	1.545996	0.210738	3368.338379
9048.913048	0.875555	0.210738	4156.338379
9048.913917	0.103162	0.210738	4245.985840
9048.914880	0.089974	0.210738	4332.631348
9048.915831	0.090048	0.210738	4418.266602
9048.916722	0.089960	0.210738	4498.420898
9048.917630	0.089890	0.210738	4580.041016
9048.918587	0.089930	0.210738	4666.104492
9048.919506	0.089952	0.210738	4748.770508
9048.920373	0.089886	0.210738	4826.702148
9048.921311	0.089963	0.210738	4911.087891
9048.922226	0.089974	0.210738	4993.414551
9049.926074	1.050183	0.194258	442.127106
9049.926992	1.554247	0.194258	1868.925659
9049.927951	1.546725	0.194258	3352.234863
9049.928879	0.850920	0.194258	4141.889160
9049.929757	0.100514	0.194258	4230.140137
9049.930693	0.089886	0.194258	4314.273926
9049.931633	0.089985	0.194258	4398.860352
9049.932553	0.090022	0.194258	4481.680664
9049.933415	0.090004	0.194258	4559.263672
9049.934379	0.089938	0.194258	4645.963867
9049.935329	0.090000	0.194258	4731.463867
9049.936205	0.089956	0.194258	4810.265137
9049.937111	0.090007	0.194258	4891.811523
9049.938065	0.090040	0.194258	4977.709961
9050.935737	1.051091	0.218657	442.509430
9050.936662	1.556660	0.218657	1882.420044
9050.937601	1.546791	0.218657	3334.856689
9050.938527	0.871985	0.218657	4142.314453
9050.939393	0.103129	0.218657	4231.624023
9050.940346	0.089810	0.218657	4317.212402
9050.941299	0.089974	0.218657	4402.958008
9050.942196	0.089908	0.218657	4483.605957
9050.943104	0.089912	0.218657	4565.246094
9050.944031	0.089817	0.218657	4648.506348
9050.944975	0.090026	0.218657	4733.490723
9050.945868	0.090040	0.218657	4813.896484
9050.946781	0.089963	0.218657	4896.033203
9050.947733	0.090007	0.218657	4981.720215
9051.954624	1.057599	0.188545	452.652344
9051.955487	1.553807	0.188545	1793.588135
9051.956499	1.546754	0.188545	3358.903320
9051.957428	0.854788	0.188545	4153.000977
9051.958307	0.100598	0.188545	4241.426758
9051.959190	0.089908	0.188545	4320.815918
9051.960123	0.089985	0.188545	4404.772461
9051.961073	0.090022	0.188545	4490.293457
9051.961962	0.089971	0.188545	4570.277344
9051.962867	0.090029	0.188545	4651.753906
9051.963823	0.089989	0.188545	4737.783203
9051.964737	0.089963	0.188545	4820.009766
9051.965615	0.089967	0.188545	4899.000977
9051.966564	0.089949	0.188545	4984.362305
9052.961205	1.059979	0.217219	446.251251
9052.962292	1.561062	0.217219	2143.125732
9052.963212	1.541547	0.217219	3561.348633
9052.964091	0.721110	0.217219	4195.204102
9052.965064	0.095826	0.217219	4288.443359
9052.966076	0.089883	0.217219	4379.404785
9052.966961	0.090059	0.217219	4459.106445
9052.967836	0.090055	0.217219	4537.904297
9052.968797	0.090011	0.217219	4624.404785
9052.969749	0.089967	0.217219	4710.053223
9052.970670	0.090066	0.217219	4793.003906
9052.971532	0.089941	0.217219	4870.533203
9052.972561	0.089989	0.217219	4963.131836
9052.973451	0.089886	0.217219	5043.130859
9053.983187	1.079271	0.188288	480.275726
9053.984048	1.554921	0.188288	1819.062500
9053.985154	1.542345	0.188288	3524.895996
9053.986164	0.550408	0.188288	4080.807861
9053.987040	0.092201	0.188288	4161.575684
9053.988034	0.090011	0.188288	4251.046387
9053.989080	0.090037	0.188288	4345.224609
9053.989976	0.089989	0.188288	4425.854980
9053.990842	0.090044	0.188288	4503.833008
9053.991856	0.090070	0.188288	4595.163574
9053.992834	0.089923	0.188288	4683.108398
9053.993702	0.090018	0.188288	4761.244141
9053.994560	0.090055	0.188288	4838.511230
9053.995670	0.089978	0.188288	4938.386719
9054.987754	1.077012	0.220313	499.733429
9054.988645	1.557949	0.220313	1887.866089
9054.989523	1.549127	0.220313	3247.999756
9054.990431	0.943660	0.220313	4104.842773
9054.991513	0.096925	0.220313	4209.715820
9054.992532	0.089916	0.220313	4301.339844
9054.993414	0.089978	0.220313	4380.700684
9054.994379	0.089912	0.220313	4467.465820
9054.995419	0.089850	0.220313	4560.909668
9054.996332	0.089916	0.220313	4643.002930
9054.997190	0.089974	0.220313	4720.201172
9054.998269	0.090007	0.220313	4817.318848
9054.999264	0.089843	0.220313	4906.712402
9055.000135	0.089993	0.220313	4985.096191
9056.009659	1.051194	0.193911	442.552612
9056.010631	1.555210	0.193911	1954.216553
9056.011686	1.540510	0.193911	3579.454834
9056.012653	0.554967	0.193911	4116.107910
9056.013520	0.092560	0.193911	4196.357422
9056.014588	0.089967	0.193911	4292.442383
9056.015617	0.089982	0.193911	4385.033691
9056.016509	0.089963	0.193911	4465.281250
9056.017423	0.089971	0.193911	4547.514648
9056.018475	0.090092	0.193911	4642.291016
9056.019414	0.090059	0.193911	4726.855957
9056.020276	0.089894	0.193911	4804.344238
9056.021306	0.090007	0.193911	4897.051758
9056.022345	0.089963	0.193911	4990.523926
9057.014268	1.124044	0.222005	537.293091
9057.015156	1.558759	0.222005	1921.470703
9057.016020	1.548468	0.222005	3259.347168
9057.016974	0.885590	0.222005	4104.199707
9057.017928	0.099467	0.222005	4199.090820
9057.018818	0.089810	0.222005	4279.021484
9057.019731	0.089908	0.222005	4361.107910
9057.020666	0.089978	0.222005	4445.237305
9057.021588	0.089978	0.222005	4528.197266
9057.022475	0.090018	0.222005	4608.043457
9057.023401	0.089879	0.222005	4691.271484
9057.024347	0.090004	0.222005	4776.415039
9057.025272	0.090048	0.222005	4859.708984
9057.026131	0.089956	0.222005	4936.981445
9058.038211	1.060192	0.184948	454.822205
9058.039113	1.554269	0.184948	1856.772705
9058.040050	1.547179	0.184948	3306.479248
9058.041006	0.836338	0.184948	4106.018555
9058.041897	0.099390	0.184948	4194.574707
9058.042805	0.090070	0.184948	4276.357910
9058.043753	0.089985	0.184948	4361.664062
9058.044670	0.090062	0.184948	4444.250977
9058.045535	0.090007	0.184948	4522.107422
9058.046495	0.089949	0.184948	4608.458008
9058.047409	0.089963	0.184948	4690.684570
9058.048337	0.089850	0.184948	4774.065430
9058.049199	0.090037	0.184948	4851.676758
9058.050147	0.090095	0.184948	4937.086914
9059.040705	1.068274	0.219165	462.562592
9059.041578	1.555038	0.219165	1820.110718
9059.042558	1.547212	0.219165	3336.378418
9059.043483	0.868422	0.219165	4139.668457
9059.044362	0.102206	0.219165	4229.507324
9059.045309	0.089894	0.219165	4314.636719
9059.046250	0.089894	0.219165	4399.226562
9059.047169	0.089908	0.219165	4481.852539
9059.048027	0.089923	0.219165	4559.006348
9059.048976	0.089941	0.219165	4644.360840
9059.049936	0.090011	0.219165	4730.771484
9059.050853	0.089938	0.219165	4813.244629
9059.051723	0.089901	0.219165	4891.458496
9059.052684	0.089930	0.219165	4977.881836
9060.064802	1.133811	0.191393	598.652222
9060.065737	1.562479	0.191393	2059.570312
9060.066664	1.543268	0.191393	3490.179687
9060.067535	0.784603	0.191393	4173.569336
9060.068570	0.093311	0.191393	4270.145508
9060.069456	0.089890	0.191393	4349.788086
9060.070330	0.089963	0.191393	4428.416016
9060.071273	0.090040	0.191393	4513.324219
9060.072275	0.090033	0.191393	4603.537109
9060.073193	0.089971	0.191393	4686.130371
9060.074053	0.090033	0.191393	4763.558594
9060.075139	0.089993	0.191393	4861.290527
9060.076037	0.089905	0.191393	4942.024902
9060.076912	0.089960	0.191393	5020.739746
9061.068290	1.109209	0.221159	547.949219
9061.069178	1.559506	0.221159	1932.790161
9061.070038	1.547410	0.221159	3263.562500
9061.071134	0.703323	0.221159	4034.404297
9061.072102	0.092380	0.221159	4123.828613
9061.072967	0.089963	0.221159	4201.646973
9061.073958	0.090022	0.221159	4290.858887
9061.075005	0.090015	0.221159	4385.104004
9061.075897	0.089974	0.221159	4465.361328
9061.076761	0.090059	0.221159	4543.171875
9061.077858	0.090033	0.221159	4641.937988
9061.078826	0.089883	0.221159	4728.944336
9061.079690	0.089960	0.221159	4806.669434
9061.080725	0.090040	0.221159	4899.861328
9062.092249	1.080114	0.186483	481.730621
9062.093118	1.555964	0.186483	1833.863647
9062.094182	1.543495	0.186483	3476.142090
9062.095192	0.595529	0.186483	4077.625977
9062.096065	0.092834	0.186483	4158.670410
9062.097025	0.089875	0.186483	4244.950684
9062.098070	0.089996	0.186483	4338.997070
9062.098985	0.089971	0.186483	4421.320312
9062.099853	0.089978	0.186483	4499.421387
9062.100911	0.090007	0.186483	4594.648926
9062.101913	0.089989	0.186483	4684.817871
9062.102815	0.090007	0.186483	4766.004395
9062.103794	0.089993	0.186483	4854.107422
9062.104836	0.089971	0.186483	4947.856934
9063.093717	1.066454	0.216804	469.239746
9063.094636	1.558070	0.216804	1901.106079
9063.095516	1.548995	0.216804	3264.222168
9063.096466	0.871868	0.216804	4092.496582
9063.097428	0.098848	0.216804	4187.587891
9063.098353	0.090033	0.216804	4270.868164
9063.099214	0.090007	0.216804	4348.364258
9063.100181	0.089949	0.216804	4435.344727
9063.101124	0.090015	0.216804	4520.228516
9063.101995	0.090055	0.216804	4598.666504
9063.102866	0.090015	0.216804	4677.069336
9063.103973	0.090095	0.216804	4776.804687
9063.104994	0.089985	0.216804	4868.679687
9063.105881	0.090084	0.216804	4948.584473
9064.118713	1.050084	0.188819	441.035370
9064.119634	1.555104	0.188819	1873.285889
9064.120599	1.546443	0.188819	3365.603271
9064.121537	0.816746	0.188819	4131.710449
9064.122402	0.100188	0.188819	4218.373047
9064.123383	0.090000	0.188819	4306.663086
9064.124333	0.089769	0.188819	4391.943848
9064.125220	0.089949	0.188819	4471.728516
9064.126087	0.089945	0.188819	4549.710937
9064.127186	0.090004	0.188819	4648.625000
9064.128212	0.089974	0.188819	4740.938477
9064.129082	0.089930	0.188819	4819.177734
9064.130023	0.090048	0.188819	4903.912598
9064.131079	0.090040	0.188819	4998.995117
9065.122297	1.083611	0.210061	512.547913
9065.123221	1.559238	0.210061	1953.284180
9065.124103	1.547501	0.210061	3318.180176
9065.124991	0.913770	0.210061	4129.607422
9065.125936	0.100558	0.210061	4224.634766
9065.126884	0.089971	0.210061	4309.926758
9065.127775	0.090018	0.210061	4390.133301
9065.128695	0.090007	0.210061	4472.939941
9065.129649	0.090000	0.210061	4558.799805
9065.130562	0.089989	0.210061	4640.959961
9065.131445	0.090000	0.210061	4720.430176
9065.132366	0.089963	0.210061	4803.286621
9065.133317	0.089875	0.210061	4888.758301
9065.134248	0.090015	0.210061	4972.562012
9066.146286	1.123396	0.185637	524.625916
9066.147211	1.559916	0.185637	1967.548096
9066.148075	1.547428	0.185637	3304.525879
9066.149032	0.837246	0.185637	4105.770508
9066.149986	0.097588	0.185637	4198.869141
9066.150877	0.089971	0.185637	4279.033203
9066.151790	0.089971	0.185637	4361.176270
9066.152741	0.090084	0.185637	4446.846191
9066.153664	0.089916	0.185637	4529.838379
9066.154544	0.089971	0.185637	4609.012695
9066.155519	0.090062	0.185637	4696.823242
9066.156448	0.090000	0.185637	4780.433105
9066.157370	0.090004	0.185637	4863.416504
9066.158230	0.089883	0.185637	4940.715820
9067.148738	1.057189	0.215902	453.533966
9067.149606	1.554148	0.215902	1802.534424
9067.150467	1.552123	0.215902	3138.912109
9067.151447	0.966332	0.215902	4085.917236
9067.152375	0.105370	0.215902	4183.700684
9067.153252	0.089817	0.215902	4262.470215
9067.154254	0.090007	0.215902	4352.657715
9067.155161	0.090026	0.215902	4434.311035
9067.156070	0.090037	0.215902	4516.154297
9067.156939	0.089993	0.215902	4594.357910
9067.157891	0.089927	0.215902	4679.968262
9067.158822	0.089791	0.215902	4763.563965
9067.159744	0.089864	0.215902	4846.418945
9067.160618	0.089934	0.215902	4925.021484
9068.174788	1.054230	0.181258	453.318787
9068.175662	1.554968	0.181258	1812.361084
9068.176528	1.551896	0.181258	3156.302734
9068.177578	0.862635	0.181258	4062.070068
9068.178485	0.098804	0.181258	4151.685059
9068.179410	0.089817	0.181258	4234.765625
9068.180274	0.090022	0.181258	4312.544434
9068.181305	0.089872	0.181258	4405.202148
9068.182188	0.089949	0.181258	4484.626953
9068.183052	0.089960	0.181258	4562.352051
9068.184028	0.089916	0.181258	4650.109863
9068.184958	0.089927	0.181258	4733.741699
9068.185878	0.090022	0.181258	4816.562012
9068.186754	0.089952	0.181258	4895.360352
9069.176351	1.132544	0.212478	596.850647
9069.177410	1.563637	0.212478	2252.741699
9069.178330	1.538104	0.212478	3667.797607
9069.179199	0.592994	0.212478	4183.109863
9069.180299	0.090831	0.212478	4283.024414
9069.181280	0.089974	0.212478	4371.289062
9069.182161	0.089883	0.212478	4450.475586
9069.183158	0.090004	0.212478	4540.209473
9069.184207	0.089996	0.212478	4634.615723
9069.185088	0.089905	0.212478	4713.821777
9069.185950	0.089974	0.212478	4791.379883
9069.187058	0.089945	0.212478	4891.039062
9069.188015	0.089883	0.212478	4977.057129
9069.188872	0.089912	0.212478	5054.111816
9070.200346	1.141340	0.186205	577.518188
9070.201297	1.562842	0.186205	2063.780762
9070.202164	1.545377	0.186205	3403.622803
9070.203205	0.642649	0.186205	4072.620361
9070.204240	0.091300	0.186205	4167.115723
9070.205120	0.089996	0.186205	4246.312500
9070.206064	0.090029	0.186205	4331.300293
9070.207131	0.089908	0.186205	4427.232422
9070.208060	0.089974	0.186205	4510.818848
9070.208918	0.090073	0.186205	4588.101562
9070.209948	0.090004	0.186205	4680.805176
9070.210957	0.089886	0.186205	4771.500488
9070.211850	0.090040	0.186205	4851.906250
9070.212809	0.090092	0.186205	4938.304199
9071.203782	1.060902	0.206564	458.309723
9071.204644	1.554302	0.206564	1798.117798
9071.205609	1.548343	0.206564	3292.269043
9071.206564	0.869949	0.206564	4123.069824
9071.207471	0.099042	0.206564	4212.900879
9071.208362	0.090011	0.206564	4293.100586
9071.209302	0.089857	0.206564	4377.566406
9071.210252	0.090011	0.206564	4463.076660
9071.211142	0.089905	0.206564	4543.091797
9071.212064	0.089843	0.206564	4625.926758
9071.213015	0.089927	0.206564	4711.447266
9071.213935	0.089996	0.206564	4794.244141
9071.214796	0.089974	0.206564	4871.711914
9071.215716	0.089938	0.206564	4954.454590
9072.227839	1.082281	0.181810	533.564758
9072.228759	1.560696	0.181810	1969.404785
9072.229680	1.545315	0.181810	3392.639648
9072.230566	0.857955	0.181810	4152.788086
9072.231484	0.097917	0.181810	4242.676270
9072.232435	0.089835	0.181810	4328.109375
9072.233362	0.089960	0.181810	4411.501953
9072.234230	0.089901	0.181810	4489.536133
9072.235197	0.089923	0.181810	4576.491699
9072.236148	0.089824	0.181810	4661.914551
9072.237037	0.089923	0.181810	4741.855957
9072.237967	0.089923	0.181810	4825.484375
9072.238868	0.089890	0.181810	4906.475586
9072.239814	0.089905	0.181810	4991.525391
9073.229249	1.063780	0.216103	459.553131
9073.230119	1.554533	0.216103	1811.996460
9073.231105	1.547062	0.216103	3337.399414
9073.232029	0.866235	0.216103	4137.800781
9073.232909	0.101887	0.216103	4227.461426
9073.233869	0.089788	0.216103	4313.657715
9073.234777	0.090033	0.216103	4395.407715
9073.235689	0.089938	0.216103	4477.431152
9073.236576	0.089901	0.216103	4557.173340
9073.237479	0.090004	0.216103	4638.446777
9073.238446	0.089919	0.216103	4725.398926
9073.239373	0.089989	0.216103	4808.818848
9073.240236	0.089971	0.216103	4886.463379
9073.241196	0.089938	0.216103	4972.803711
9074.254285	1.065795	0.184465	470.015472
9074.255160	1.555598	0.184465	1831.163818
9074.256022	1.551174	0.184465	3168.276123
9074.257080	0.848467	0.184465	4065.954102
9074.257961	0.100342	0.184465	4154.355469
9074.258834	0.089905	0.184465	4232.842285
9074.259721	0.089941	0.184465	4312.620117
9074.260747	0.090033	0.184465	4404.994141
9074.261646	0.089824	0.184465	4485.746094
9074.262519	0.089879	0.184465	4564.210449
9074.263503	0.089971	0.184465	4652.741699
9074.264439	0.089934	0.184465	4736.919922
9074.265365	0.089996	0.184465	4820.256348
9074.266228	0.089883	0.184465	4897.825195
9075.256870	1.143779	0.214778	590.190125
9075.257763	1.561088	0.214778	1984.241455
9075.258635	1.547172	0.214778	3333.375000
9075.259648	0.765161	0.214778	4108.483398
9075.260644	0.093102	0.214778	4201.212891
9075.261525	0.089934	0.214778	4280.444824
9075.262390	0.090059	0.214778	4358.345703
9075.263486	0.089897	0.214778	4456.873535
9075.264402	0.089806	0.214778	4539.135742
9075.265275	0.089919	0.214778	4617.635254
9075.266251	0.090022	0.214778	4705.496582
9075.267254	0.090062	0.214778	4795.829102
9075.268136	0.089938	0.214778	4875.154297
9075.268999	0.089967	0.214778	4952.795898
9076.282919	1.156066	0.173036	603.466309
9076.283929	1.563765	0.173036	2182.868652
9076.284813	1.541744	0.173036	3545.770508
9076.285831	0.568524	0.173036	4124.528320
9076.286876	0.090681	0.173036	4219.290039
9076.287760	0.089894	0.173036	4298.756348
9076.288633	0.089901	0.173036	4377.240234
9076.289714	0.089850	0.173036	4474.368164
9076.290659	0.089868	0.173036	4559.293457
9076.291535	0.089938	0.173036	4638.079102
9076.292547	0.090011	0.173036	4729.170410
9076.293582	0.089868	0.173036	4822.184082
9076.294471	0.089985	0.173036	4902.181152
9076.295339	0.089949	0.173036	4980.256836
9077.284285	1.054237	0.205126	449.105011
9077.285228	1.557550	0.205126	1917.874634
9077.286173	1.545469	0.205126	3378.342773
9077.287101	0.820104	0.205126	4139.398926
9077.287963	0.100441	0.205126	4225.979004
9077.288940	0.090000	0.205126	4313.909180
9077.289893	0.089967	0.205126	4399.647949
9077.290777	0.089945	0.205126	4479.159180
9077.291721	0.090011	0.205126	4564.129395
9077.292794	0.090037	0.205126	4660.738770
9077.293790	0.089985	0.205126	4750.364258
9077.294672	0.090011	0.205126	4829.753906
9077.295658	0.090029	0.205126	4918.522949
9077.296711	0.089993	0.205126	5013.285156
9078.308320	1.100614	0.185814	509.584259
9078.309215	1.558352	0.185814	1904.309326
9078.310094	1.549138	0.185814	3266.001953
9078.311013	0.940854	0.185814	4130.646973
9078.311973	0.103315	0.185814	4229.829590
9078.312894	0.090007	0.185814	4312.726562
9078.313760	0.090007	0.185814	4390.672852
9078.314733	0.090059	0.185814	4478.299805
9078.315628	0.089883	0.185814	4558.745117
9078.316546	0.090004	0.185814	4641.368652
9078.317422	0.090117	0.185814	4720.311523
9078.318390	0.089799	0.185814	4807.236328
9078.319335	0.089883	0.185814	4892.175781
9078.320222	0.090018	0.185814	4972.021973
9079.309754	1.055083	0.215817	443.134827
9079.310738	1.557502	0.215817	1975.717285
9079.311677	1.545399	0.215817	3426.847168
9079.312564	0.847306	0.215817	4178.407715
9079.313454	0.101180	0.215817	4268.458496
9079.314395	0.089758	0.215817	4352.920898
9079.315340	0.089971	0.215817	4437.943359
9079.316229	0.089923	0.215817	4517.884766
9079.317140	0.089857	0.215817	4599.744629
9079.318106	0.089872	0.215817	4686.561035
9079.319022	0.089864	0.215817	4768.876953
9079.319885	0.089883	0.215817	4846.445801
9079.320855	0.089927	0.215817	4933.674805
9079.321791	0.089872	0.215817	5017.794922
9080.334811	1.092645	0.186209	488.412445
9080.335677	1.555734	0.186209	1835.677856
9080.336734	1.543769	0.186209	3467.442139
9080.337626	0.776195	0.186209	4159.808105
9080.338523	0.096665	0.186209	4246.516602
9080.339400	0.089945	0.186209	4325.398437
9080.340387	0.090000	0.186209	4414.228516
9080.341310	0.089930	0.186209	4497.234375
9080.342188	0.090022	0.186209	4576.273437
9080.343219	0.089868	0.186209	4668.927734
9080.344114	0.089993	0.186209	4749.471191
9080.345025	0.089901	0.186209	4831.371094
9080.345895	0.090117	0.186209	4909.772949
9080.346859	0.089952	0.186209	4996.486816
9081.338406	1.124454	0.209243	598.209656
9081.339466	1.563120	0.209243	2255.116943
9081.340384	1.537467	0.209243	3666.511719
9081.341274	0.565748	0.209243	4170.027832
9081.342252	0.092816	0.209243	4260.802246
9081.343252	0.089989	0.209243	4350.791016
9081.344140	0.090015	0.209243	4430.724121
9081.345007	0.089883	0.209243	4508.652344
9081.346084	0.090033	0.209243	4605.617676
9081.347019	0.089971	0.209243	4689.740234
9081.347897	0.090011	0.209243	4768.770020
9081.348865	0.090000	0.209243	4855.890137
9081.349869	0.089875	0.209243	4946.125000
9081.350748	0.089989	0.209243	5025.225586
9082.362395	1.150214	0.179603	595.810669
9082.363357	1.563168	0.179603	2099.578125
9082.364229	1.544557	0.179603	3446.431641
9082.365269	0.611349	0.179603	4082.234375
9082.366314	0.091014	0.179603	4177.344238
9082.367201	0.089960	0.179603	4257.138672
9082.368122	0.089985	0.179603	4340.015137
9082.369200	0.089971	0.179603	4437.003418
9082.370145	0.090004	0.179603	4522.056641
9082.371009	0.090044	0.179603	4599.854492
9082.372060	0.090066	0.179603	4694.513672
9082.373067	0.089996	0.179603	4785.140137
9082.373947	0.090000	0.179603	4864.340332
9082.374905	0.090077	0.179603	4950.633789
9083.362748	1.054226	0.218403	448.046082
9083.363716	1.557484	0.218403	1955.690674
9083.364649	1.545125	0.218403	3397.291992
9083.365586	0.805162	0.218403	4151.729004
9083.366443	0.099111	0.218403	4236.667480
9083.367397	0.089846	0.218403	4322.380859
9083.368340	0.089934	0.218403	4407.188477
9083.369232	0.089886	0.218403	4487.367187
9083.370147	0.089875	0.218403	4569.603027
9083.371100	0.089773	0.218403	4655.156738
9083.372019	0.089993	0.218403	4737.859863
9083.372887	0.089927	0.218403	4815.916504
9083.373823	0.090066	0.218403	4900.218262
9083.374765	0.089978	0.218403	4984.977539
