time (s)	coil I (A)	last det (V)	int current (uC)
8295.243296	1.163200	0.396813	588.578979
8295.244233	1.561842	0.396813	2052.024902
8295.245154	1.544806	0.396813	3474.791016
8295.246036	1.505240	0.396813	4802.413086
8295.246988	1.462877	0.396813	6195.072266
8295.247947	1.423114	0.396813	7559.838379
8295.248840	1.386834	0.396813	8798.281250
8295.249758	1.076104	0.396813	9786.144531
8295.250707	0.123534	0.396813	9903.377930
8295.251650	0.089864	0.396813	9988.120117
8295.252542	0.089938	0.396813	10068.344727
8295.253531	0.090015	0.396813	10157.369141
8295.254560	0.089846	0.396813	10249.821289
8295.255508	0.089839	0.396813	10334.988281
8295.256367	0.089832	0.396813	10412.153320
8295.257407	0.090018	0.396813	10505.772461
8295.258430	0.089908	0.396813	10597.749023
8295.259308	0.090015	0.396813	10676.782227
8296.246252	1.083666	0.437480	495.235229
8296.247161	1.557942	0.437480	1911.404419
8296.248032	1.550259	0.437480	3261.679932
8296.248918	1.511199	0.437480	4600.602051
8296.249856	1.467964	0.437480	5977.552246
8296.250819	1.428164	0.437480	7352.874023
8296.251707	1.392092	0.437480	8589.051758
8296.252627	1.190065	0.437480	9683.911133
8296.253587	0.165677	0.437480	9842.961914
8296.254511	0.089846	0.437480	9925.979492
8296.255377	0.089883	0.437480	10003.818359
8296.256342	0.089949	0.437480	10090.619141
8296.257284	0.089919	0.437480	10175.323242
8296.258190	0.089864	0.437480	10256.740234
8296.259049	0.089824	0.437480	10333.899414
8296.260014	0.089846	0.437480	10420.600586
8296.260958	0.089864	0.437480	10505.432617
8296.261846	0.089883	0.437480	10585.249023
8297.279480	1.102390	0.411847	522.532959
8297.280374	1.558499	0.411847	1915.830688
8297.281254	1.550131	0.411847	3279.945801
8297.282182	1.510038	0.411847	4681.260742
8297.283129	1.466854	0.411847	6070.371582
8297.284052	1.427596	0.411847	7388.042969
8297.284934	1.391587	0.411847	8615.422852
8297.285851	1.165550	0.411847	9684.232422
8297.286814	0.153149	0.411847	9831.714844
8297.287736	0.089846	0.411847	9914.552734
8297.288600	0.089872	0.411847	9992.202148
8297.289571	0.089993	0.411847	10079.584961
8297.290517	0.089835	0.411847	10164.569336
8297.291409	0.089879	0.411847	10244.741211
8297.292337	0.089872	0.411847	10328.142578
8297.293290	0.089875	0.411847	10413.793945
8297.294203	0.089839	0.411847	10495.816406
8297.295081	0.089839	0.411847	10574.695312
8298.281459	1.070717	0.477968	510.731842
8298.282386	1.560351	0.477968	1957.177612
8298.283312	1.546359	0.477968	3389.105713
8298.284192	1.507928	0.477968	4716.083008
8298.285120	1.465756	0.477968	6076.304199
8298.286084	1.425813	0.477968	7450.788086
8298.286988	1.388309	0.477968	8705.819336
8298.287871	1.149628	0.477968	9720.940430
8298.288821	0.152728	0.477968	9866.032227
8298.289770	0.089773	0.477968	9951.226562
8298.290654	0.089901	0.477968	10030.699219
8298.291542	0.089879	0.477968	10110.511719
8298.292478	0.089828	0.477968	10194.590820
8298.293425	0.089886	0.477968	10279.712891
8298.294324	0.089886	0.477968	10360.520508
8298.295254	0.089839	0.477968	10444.070312
8298.296207	0.089897	0.477968	10529.742187
8298.297113	0.089908	0.477968	10611.199219
8299.309508	1.063370	0.449931	459.375977
8299.310379	1.554613	0.449931	1813.443848
8299.311358	1.549512	0.449931	3330.415771
8299.312289	1.508236	0.449931	4734.583496
8299.313210	1.466928	0.449931	6085.624023
8299.314074	1.429797	0.449931	7320.968750
8299.314991	1.391070	0.449931	8596.580078
8299.315962	1.127853	0.449931	9691.724609
8299.316891	0.152120	0.449931	9833.044922
8299.317752	0.089784	0.449931	9910.348633
8299.318720	0.090029	0.449931	9997.497070
8299.319674	0.089828	0.449931	10083.193359
8299.320566	0.089982	0.449931	10163.457031
8299.321476	0.089938	0.449931	10245.300781
8299.322408	0.089780	0.449931	10328.975586
8299.323340	0.089941	0.449931	10412.800781
8299.324212	0.090000	0.449931	10491.281250
8299.325115	0.089897	0.449931	10572.458984
8300.317706	1.094982	0.513768	552.965759
8300.318616	1.561296	0.513768	1973.745605
8300.319546	1.545524	0.513768	3411.082520
8300.320434	1.506544	0.513768	4748.893555
8300.321388	1.463877	0.513768	6145.432129
8300.322325	1.424297	0.513768	7479.998047
8300.323254	1.386943	0.513768	8768.468750
8300.324122	1.130160	0.513768	9749.447266
8300.325095	0.141482	0.513768	9887.109375
8300.326005	0.089839	0.513768	9968.862305
8300.326897	0.089934	0.513768	10049.083984
8300.327957	0.089835	0.513768	10144.309570
8300.328859	0.089930	0.513768	10225.426758
8300.329775	0.089927	0.513768	10307.799805
8300.330650	0.089894	0.513768	10386.457031
8300.331640	0.089894	0.513768	10475.452148
8300.332566	0.089872	0.513768	10558.673828
8300.333445	0.089919	0.513768	10637.712891
8301.344256	1.091202	0.463490	536.871582
8301.345167	1.560311	0.463490	1958.315186
8301.346078	1.546710	0.463490	3367.368164
8301.346964	1.507965	0.463490	4703.425293
8301.347915	1.464946	0.463490	6096.589355
8301.348871	1.425059	0.463490	7458.945312
8301.349766	1.388686	0.463490	8701.819336
8301.350733	1.051637	0.463490	9718.751953
8301.351683	0.124406	0.463490	9836.937500
8301.352605	0.089751	0.463490	9919.687500
8301.353487	0.089886	0.463490	9998.967773
8301.354439	0.089945	0.463490	10084.595703
8301.355361	0.089901	0.463490	10167.484375
8301.356281	0.089886	0.463490	10250.179687
8301.357154	0.089989	0.463490	10328.740234
8301.358062	0.089916	0.463490	10410.383789
8301.359014	0.089916	0.463490	10495.983398
8301.359908	0.089949	0.463490	10576.397461
8302.350856	1.116932	0.536931	559.583130
8302.351747	1.560271	0.536931	1949.784668
8302.352623	1.548944	0.536931	3306.659668
8302.353623	1.505171	0.536931	4811.830566
8302.354629	1.459794	0.536931	6280.382812
8302.355525	1.422195	0.536931	7554.669434
8302.356391	1.385804	0.536931	8754.776367
8302.357484	0.881697	0.536931	9718.470703
8302.358378	0.105699	0.536931	9812.965820
8302.359307	0.089897	0.536931	9896.480469
8302.360168	0.089872	0.536931	9973.860352
8302.361204	0.089806	0.536931	10066.899414
8302.362081	0.089839	0.536931	10145.688477
8302.362952	0.089960	0.536931	10224.042969
8302.363917	0.089967	0.536931	10310.861328
8302.364854	0.090004	0.536931	10395.194336
8302.365761	0.089890	0.536931	10476.724609
8302.366637	0.089963	0.536931	10555.532227
8303.377857	1.066560	0.494665	458.620850
8303.378739	1.555616	0.494665	1830.674438
8303.379603	1.550383	0.494665	3170.205566
8303.380731	1.503823	0.494665	4866.518066
8303.381637	1.462500	0.494665	6191.542969
8303.382518	1.425505	0.494665	7447.413086
8303.383536	1.384735	0.494665	8857.073242
8303.384534	0.905167	0.494665	9760.429687
8303.385426	0.109138	0.494665	9857.781250
8303.386283	0.089817	0.494665	9934.753906
8303.387366	0.089978	0.494665	10032.200195
8303.388265	0.089821	0.494665	10112.949219
8303.389132	0.089916	0.494665	10190.906250
8303.390112	0.090044	0.494665	10279.149414
8303.391113	0.089901	0.494665	10369.140625
8303.391996	0.089963	0.494665	10448.578125
8303.392865	0.089978	0.494665	10526.768555
8303.393933	0.089996	0.494665	10622.884766
8304.374725	1.060682	0.568456	461.396790
8304.375589	1.553778	0.568456	1803.861084
8304.376680	1.543477	0.568456	3487.793945
8304.377684	1.498524	0.568456	4992.312500
8304.378583	1.458885	0.568456	6303.850586
8304.379558	1.418086	0.568456	7686.484375
8304.380619	1.376030	0.568456	9146.452148
8304.381538	0.723794	0.568456	9811.619141
8304.382397	0.098020	0.568456	9895.818359
8304.383481	0.089927	0.568456	9993.298828
8304.384465	0.089971	0.568456	10081.830078
8304.385348	0.089956	0.568456	10161.261719
8304.386361	0.090029	0.568456	10252.460937
8304.387408	0.089916	0.568456	10346.602539
8304.388291	0.090015	0.568456	10426.085937
8304.389153	0.089908	0.568456	10503.586914
8304.390169	0.089967	0.568456	10594.993164
8304.391118	0.089894	0.568456	10680.302734
8305.417689	1.082790	0.461520	481.841766
8305.418557	1.555994	0.461520	1832.444336
8305.419571	1.546630	0.461520	3400.726807
8305.420612	1.501047	0.461520	4963.317383
8305.421501	1.460544	0.461520	6261.741211
8305.422388	1.421942	0.461520	7523.003906
8305.423480	1.379403	0.461520	9029.312500
8305.424445	0.788954	0.461520	9790.653320
8305.425303	0.100917	0.461520	9877.240234
8305.426326	0.089901	0.461520	9969.208984
8305.427395	0.090004	0.461520	10065.422852
8305.428274	0.089901	0.461520	10144.446289
8305.429139	0.089982	0.461520	10222.280273
8305.430170	0.090048	0.461520	10315.119141
8305.431124	0.089894	0.461520	10400.877930
8305.432001	0.090011	0.461520	10479.817383
8305.432920	0.089923	0.461520	10562.457031
8305.433983	0.089963	0.461520	10658.087891
8306.402864	1.167579	0.553193	622.319763
8306.403908	1.563505	0.553193	2254.618652
8306.404802	1.539957	0.553193	3631.340332
8306.405734	1.497726	0.553193	5027.220703
8306.406814	1.450305	0.553193	6593.550293
8306.407766	1.411121	0.553193	7936.937012
8306.408637	1.375847	0.553193	9135.299805
8306.409696	0.574808	0.553193	9744.021484
8306.410711	0.090868	0.553193	9836.251953
8306.411602	0.089967	0.553193	9916.412109
8306.412553	0.090106	0.553193	10002.103516
8306.413598	0.089963	0.553193	10096.115234
8306.414518	0.089971	0.553193	10178.888672
8306.415381	0.090055	0.553193	10256.606445
8306.416441	0.089982	0.553193	10351.987305
8306.417439	0.089901	0.553193	10441.708984
8306.418329	0.089985	0.553193	10521.795898
8306.419304	0.090044	0.553193	10609.588867
8307.451332	1.053552	0.457605	450.920319
8307.452244	1.553503	0.457605	1867.715332
8307.453335	1.542180	0.457605	3550.233887
8307.454277	1.500168	0.457605	4963.392578
8307.455143	1.461130	0.457605	6228.731445
8307.456172	1.417884	0.457605	7687.734375
8307.457208	1.376620	0.457605	9113.912109
8307.458115	0.773412	0.457605	9815.396484
8307.459072	0.099741	0.457605	9910.848633
8307.460122	0.089938	0.457605	10005.283203
8307.461054	0.089956	0.457605	10089.122070
8307.461923	0.089974	0.457605	10167.309570
8307.462985	0.089923	0.457605	10262.807617
8307.463999	0.089700	0.457605	10353.762695
8307.464892	0.089908	0.457605	10434.050781
8307.465857	0.090062	0.457605	10520.960937
8307.466906	0.090004	0.457605	10615.375000
8307.467822	0.090000	0.457605	10697.815430
8308.435445	1.107059	0.539215	519.210754
8308.436344	1.558110	0.539215	1919.951904
8308.437221	1.549365	0.539215	3278.745117
8308.438162	1.508675	0.539215	4698.408691
8308.439119	1.465686	0.539215	6101.070312
8308.440033	1.426655	0.539215	7405.033203
8308.440903	1.390690	0.539215	8614.933594
8308.441853	1.161841	0.539215	9718.682617
8308.442782	0.151641	0.539215	9859.556641
8308.443713	0.089901	0.539215	9943.254883
8308.444575	0.090018	0.539215	10020.850586
8308.445547	0.089974	0.539215	10108.305664
8308.446504	0.089923	0.539215	10194.362305
8308.447391	0.090026	0.539215	10274.214844
8308.448307	0.089941	0.539215	10356.601562
8308.449260	0.089952	0.539215	10442.326172
8308.450183	0.089861	0.539215	10525.267578
8308.451041	0.090037	0.539215	10602.518555
8309.463993	1.067941	0.533599	449.602997
8309.464968	1.558993	0.533599	1969.621094
8309.465894	1.546212	0.533599	3401.413574
8309.466783	1.506885	0.533599	4741.034180
8309.467695	1.465997	0.533599	6078.023437
8309.468667	1.425406	0.533599	7463.518555
8309.469601	1.387398	0.533599	8759.347656
8309.470472	1.149467	0.533599	9760.533203
8309.471442	0.146741	0.533599	9902.872070
8309.472376	0.089864	0.533599	9986.805664
8309.473276	0.090007	0.533599	10067.812500
8309.474132	0.089908	0.533599	10144.774414
8309.475103	0.089908	0.533599	10232.075195
8309.476048	0.089919	0.533599	10317.048828
8309.476947	0.089993	0.533599	10397.952148
8309.477857	0.089912	0.533599	10479.772461
8309.478815	0.090026	0.533599	10566.016602
8309.479734	0.089960	0.533599	10648.689453
8310.471629	1.088906	0.507685	483.474335
8310.472556	1.558425	0.507685	1928.134644
8310.473426	1.548743	0.507685	3275.540771
8310.474402	1.506907	0.507685	4746.281738
8310.475352	1.464712	0.507685	6137.757812
8310.476230	1.427238	0.507685	7390.872070
8310.477143	1.390122	0.507685	8660.053711
8310.478104	1.143977	0.507685	9759.416016
8310.479035	0.152087	0.507685	9901.009766
8310.479911	0.089813	0.507685	9979.686523
8310.480823	0.089868	0.507685	10061.646484
8310.481778	0.089960	0.507685	10147.557617
8310.482707	0.089919	0.507685	10231.092773
8310.483571	0.089755	0.507685	10308.640625
8310.484534	0.090000	0.507685	10395.310547
8310.485480	0.089938	0.507685	10480.391602
8310.486366	0.089941	0.507685	10560.080078
8310.487288	0.090004	0.507685	10643.063477
8311.494090	1.068637	0.470878	461.650970
8311.494966	1.554847	0.470878	1823.697266
8311.495892	1.549812	0.470878	3258.823242
8311.496760	1.511041	0.470878	4570.407227
8311.497730	1.468019	0.470878	5994.385742
8311.498678	1.428292	0.470878	7348.406738
8311.499577	1.391613	0.470878	8599.466797
8311.500489	1.214275	0.470878	9706.885742
8311.501451	0.178030	0.470878	9878.150391
8311.502373	0.089802	0.470878	9960.948242
8311.503232	0.089857	0.470878	10038.135742
8311.504159	0.089872	0.470878	10121.447266
8311.505126	0.089883	0.470878	10208.364258
8311.506011	0.089963	0.470878	10287.981445
8311.507091	0.089854	0.470878	10385.023437
8311.508041	0.090084	0.470878	10470.603516
8311.508966	0.089894	0.470878	10553.754883
8311.509831	0.089839	0.470878	10631.465820
8312.508857	1.048195	0.447139	442.338135
8312.509813	1.553478	0.447139	1927.462891
8312.510734	1.546630	0.447139	3351.908691
8312.511661	1.506321	0.447139	4748.268066
8312.512544	1.466638	0.447139	6043.309570
8312.513495	1.426776	0.447139	7400.173828
8312.514439	1.388540	0.447139	8710.955078
8312.515365	1.125249	0.447139	9752.935547
8312.516236	0.156555	0.447139	9889.294922
8312.517199	0.089897	0.447139	9975.866211
8312.518118	0.089930	0.447139	10058.512695
8312.519022	0.090062	0.447139	10139.928711
8312.519892	0.089846	0.447139	10218.094727
8312.520858	0.089788	0.447139	10304.829102
8312.521809	0.089769	0.447139	10390.199219
8312.522705	0.089872	0.447139	10470.724609
8312.523614	0.089952	0.447139	10552.491211
8312.524576	0.089938	0.447139	10639.011719
8313.524673	1.057698	0.423215	455.867737
8313.525536	1.553741	0.423215	1796.746582
8313.526581	1.545970	0.423215	3412.285645
8313.527470	1.506401	0.423215	4751.476562
8313.528350	1.466876	0.423215	6042.327637
8313.529297	1.426776	0.423215	7393.484375
8313.530299	1.386683	0.423215	8782.941406
8313.531224	1.070061	0.423215	9772.748047
8313.532092	0.140321	0.423215	9894.546875
8313.533115	0.089919	0.423215	9986.534180
8313.534009	0.089985	0.423215	10066.981445
8313.534921	0.089963	0.423215	10149.028320
8313.535802	0.089938	0.423215	10228.263672
8313.536795	0.089927	0.423215	10317.560547
8313.537720	0.089923	0.423215	10400.739258
8313.538600	0.089923	0.423215	10479.871094
8313.539586	0.089875	0.423215	10568.488281
8313.540512	0.090033	0.423215	10651.858398
8314.551238	1.060814	0.360752	457.210937
8314.552105	1.554265	0.360752	1804.758789
8314.553138	1.545934	0.360752	3401.708496
8314.554042	1.505973	0.360752	4763.107910
8314.554915	1.466675	0.360752	6043.515137
8314.555858	1.427289	0.360752	7389.448242
8314.556840	1.387372	0.360752	8751.847656
8314.557762	1.099991	0.360752	9766.040039
8314.558628	0.148304	0.360752	9894.471680
8314.559705	0.089813	0.360752	9991.200195
8314.560596	0.089982	0.360752	10071.374023
8314.561469	0.090029	0.360752	10149.969727
8314.562327	0.089916	0.360752	10227.117187
8314.563387	0.090059	0.360752	10322.579102
8314.564259	0.089974	0.360752	10401.037109
8314.565171	0.090004	0.360752	10483.120117
8314.566048	0.089967	0.360752	10562.021484
8314.567017	0.089982	0.360752	10649.213867
8315.554748	1.048356	0.384692	442.406097
8315.555658	1.552947	0.384692	1855.587769
8315.556668	1.545535	0.384692	3416.577881
8315.557582	1.504816	0.384692	4791.979492
8315.558468	1.465177	0.384692	6090.125977
8315.559486	1.423608	0.384692	7539.359375
8315.560385	1.385687	0.384692	8785.091797
8315.561313	1.061686	0.384692	9770.335937
8315.562178	0.137772	0.384692	9889.508789
8315.563203	0.089897	0.384692	9981.653320
8315.564094	0.089949	0.384692	10061.797852
8315.564970	0.090044	0.384692	10140.676758
8315.565949	0.090084	0.384692	10228.869141
8315.566899	0.090026	0.384692	10314.393555
8315.567822	0.090015	0.384692	10397.477539
8315.568684	0.089996	0.384692	10475.054687
8315.569729	0.090040	0.384692	10569.146484
8315.570612	0.089923	0.384692	10648.548828
8316.584885	1.060331	0.325363	445.338928
8316.585973	1.561761	0.325363	2144.535400
8316.586895	1.541979	0.325363	3566.239746
8316.587771	1.502794	0.325363	4882.687500
8316.588751	1.459702	0.325363	6313.195312
8316.589756	1.417299	0.325363	7737.580078
8316.590647	1.381509	0.325363	8968.503906
8316.591517	0.964988	0.325363	9808.042969
8316.592580	0.102982	0.325363	9917.512695
8316.593492	0.089857	0.325363	9999.462891
8316.594406	0.089996	0.325363	10081.719727
8316.595264	0.089897	0.325363	10158.851562
8316.596297	0.090037	0.325363	10251.859375
8316.597192	0.089810	0.325363	10332.239258
8316.598068	0.090022	0.325363	10411.098633
8316.599025	0.089912	0.325363	10497.144531
8316.599997	0.089879	0.325363	10584.506836
8316.600923	0.090007	0.325363	10667.853516
8317.585440	1.141578	0.360422	585.629761
8317.586445	1.563450	0.360422	2156.896484
8317.587329	1.542715	0.360422	3520.656250
8317.588337	1.498389	0.360422	5031.032227
8317.589390	1.452462	0.360422	6560.474609
8317.590270	1.414552	0.360422	7805.280273
8317.591146	1.377935	0.360422	9012.350586
8317.592236	0.633347	0.360422	9702.699219
8317.593194	0.092285	0.360422	9791.108398
8317.594065	0.089938	0.360422	9869.444336
8317.595083	0.089916	0.360422	9960.978516
8317.596112	0.089930	0.360422	10053.516602
8317.597002	0.089916	0.360422	10133.541992
8317.597870	0.089974	0.360422	10211.639648
8317.598902	0.089945	0.360422	10304.462891
8317.599859	0.089875	0.360422	10390.473633
8317.600737	0.090026	0.360422	10469.516602
8317.601619	0.089985	0.360422	10548.883789
8318.620612	1.058976	0.342782	454.300629
8318.621632	1.558572	0.342782	2044.043823
8318.622680	1.539708	0.342782	3657.658203
8318.623565	1.499227	0.342782	4984.474609
8318.624474	1.458468	0.342782	6310.222168
8318.625544	1.414241	0.342782	7823.459961
8318.626499	1.376254	0.342782	9137.782227
8318.627368	0.812333	0.342782	9843.699219
8318.628407	0.096156	0.342782	9943.605469
8318.629435	0.089886	0.342782	10036.008789
8318.630307	0.089989	0.342782	10114.479492
8318.631255	0.090022	0.342782	10199.820312
8318.632310	0.089949	0.342782	10294.715820
8318.633233	0.089927	0.342782	10377.717773
8318.634105	0.089989	0.342782	10456.188477
8318.635162	0.090007	0.342782	10551.326172
8318.636172	0.090022	0.342782	10642.248047
8318.637064	0.089941	0.342782	10722.475586
8319.613937	1.122144	0.373788	538.628967
8319.614866	1.560487	0.373788	1988.321533
8319.615795	1.545641	0.373788	3424.221680
8319.616663	1.506738	0.373788	4732.070312
8319.617640	1.463815	0.373788	6162.217285
8319.618592	1.424000	0.373788	7517.865234
8319.619481	1.387427	0.373788	8751.287109
8319.620369	1.123374	0.373788	9748.843750
8319.621321	0.141394	0.373788	9883.451172
8319.622271	0.089916	0.373788	9968.871094
8319.623138	0.089930	0.373788	10046.840820
8319.624048	0.089938	0.373788	10128.684570
8319.624998	0.089956	0.373788	10214.142578
8319.625917	0.090026	0.373788	10296.875977
8319.626792	0.089956	0.373788	10375.587891
8319.627743	0.089927	0.373788	10461.108398
8319.628667	0.089890	0.373788	10544.166992
8319.629584	0.089864	0.373788	10626.572266
8320.653758	1.055823	0.389941	447.668823
8320.654766	1.558623	0.389941	2018.760742
8320.655811	1.540192	0.389941	3628.260986
8320.656707	1.499469	0.389941	4971.785156
8320.657631	1.458468	0.389941	6319.409668
8320.658683	1.414563	0.389941	7807.530273
8320.659641	1.376473	0.389941	9126.191406
8320.660514	0.817024	0.389941	9839.453125
8320.661572	0.095760	0.389941	9940.767578
8320.662601	0.089901	0.389941	10033.275391
8320.663483	0.089908	0.389941	10112.574219
8320.664464	0.089985	0.389941	10200.849609
8320.665513	0.089908	0.389941	10295.163086
8320.666434	0.090022	0.389941	10378.073242
8320.667291	0.089993	0.389941	10455.197266
8320.668337	0.090059	0.389941	10549.398437
8320.669341	0.089872	0.389941	10639.629883
8320.670232	0.089982	0.389941	10719.803711
8321.642946	1.061462	0.416109	455.367371
8321.643815	1.554170	0.416109	1805.940918
8321.644850	1.545242	0.416109	3405.266113
8321.645869	1.500348	0.416109	4934.120605
8321.646759	1.460530	0.416109	6233.992187
8321.647721	1.420712	0.416109	7600.716797
8321.648780	1.377920	0.416109	9059.933594
8321.649716	0.790151	0.416109	9799.515625
8321.650577	0.101023	0.416109	9886.496094
8321.651665	0.089886	0.416109	9984.292969
8321.652647	0.089930	0.416109	10072.604492
8321.653546	0.089952	0.416109	10153.471680
8321.654530	0.089930	0.416109	10241.962891
8321.655568	0.089912	0.416109	10335.291992
8321.656469	0.089974	0.416109	10416.359375
8321.657331	0.090040	0.416109	10493.973633
8321.658420	0.090051	0.416109	10592.039062
8321.659381	0.089956	0.416109	10678.487305
8322.683335	1.058767	0.407702	458.446136
8322.684325	1.554946	0.407702	1997.843018
8322.685382	1.540005	0.407702	3625.628174
8322.686300	1.498484	0.407702	5001.236328
8322.687162	1.458732	0.407702	6258.663086
8322.688262	1.414552	0.407702	7814.670410
8322.689247	1.374609	0.407702	9168.660156
8322.690130	0.749202	0.407702	9830.205078
8322.691122	0.096471	0.407702	9925.904297
8322.692166	0.089905	0.407702	10019.764648
8322.693070	0.089971	0.407702	10101.098633
8322.693930	0.089982	0.407702	10178.482422
8322.695034	0.089868	0.407702	10277.697266
8322.695995	0.089982	0.407702	10364.169922
8322.696865	0.090015	0.407702	10442.482422
8322.697910	0.089908	0.407702	10536.436523
8322.698945	0.089799	0.407702	10629.377930
8322.699835	0.090011	0.407702	10709.487305
8323.671032	1.110333	0.450398	528.518616
8323.671910	1.557894	0.450398	1896.349854
8323.672774	1.549288	0.450398	3234.935059
8323.673732	1.508027	0.450398	4679.625000
8323.674692	1.465247	0.450398	6086.261719
8323.675585	1.427201	0.450398	7360.751953
8323.676503	1.390737	0.450398	8637.449219
8323.677431	1.141542	0.450398	9696.799805
8323.678383	0.149839	0.450398	9839.446289
8323.679266	0.089846	0.450398	9918.780273
8323.680192	0.089894	0.450398	10002.021484
8323.681143	0.089945	0.450398	10087.559570
8323.682070	0.089956	0.450398	10170.949219
8323.682927	0.089886	0.450398	10247.981445
8323.683872	0.089919	0.450398	10332.955078
8323.684784	0.089857	0.450398	10414.905273
8323.685709	0.089919	0.450398	10498.081055
8323.686573	0.089993	0.450398	10575.834961
8324.714499	1.145848	0.386859	559.174011
8324.715433	1.560758	0.386859	2016.921875
8324.716298	1.546626	0.386859	3354.753418
8324.717269	1.504596	0.386859	4815.715820
8324.718202	1.462258	0.386859	6180.002930
8324.719101	1.424608	0.386859	7460.725586
8324.720013	1.388082	0.386859	8726.656250
8324.720974	1.076536	0.386859	9761.207031
8324.721901	0.129917	0.386859	9881.639648
8324.722776	0.089751	0.386859	9960.171875
8324.723750	0.089886	0.386859	10047.721680
8324.724705	0.089960	0.386859	10133.632812
8324.725630	0.089872	0.386859	10216.764648
8324.726493	0.090051	0.386859	10294.478516
8324.727569	0.089978	0.386859	10391.294922
8324.728612	0.089916	0.386859	10485.077148
8324.729502	0.089952	0.386859	10565.134766
8324.730361	0.089857	0.386859	10642.322266
8325.701566	1.054241	0.460078	446.998047
8325.702440	1.553276	0.460078	1804.561523
8325.703420	1.547146	0.460078	3320.764648
8325.704346	1.506724	0.460078	4715.990723
8325.705233	1.467052	0.460078	6017.266113
8325.706168	1.427549	0.460078	7352.024414
8325.707122	1.388943	0.460078	8677.076172
8325.708053	1.147632	0.460078	9745.521484
8325.708920	0.163748	0.460078	9887.490234
8325.709871	0.089751	0.460078	9972.843750
8325.710819	0.089894	0.460078	10058.063477
8325.711715	0.089861	0.460078	10138.579102
8325.712600	0.089828	0.460078	10218.077148
8325.713553	0.089875	0.460078	10303.728516
8325.714502	0.089927	0.460078	10389.069336
8325.715391	0.089916	0.460078	10469.004883
8325.716313	0.089879	0.460078	10551.873047
8325.717268	0.089945	0.460078	10637.770508
8326.742516	1.102972	0.374090	507.367310
8326.743465	1.560114	0.374090	1987.915039
8326.744394	1.545395	0.374090	3423.587402
8326.745259	1.506032	0.374090	4726.304687
8326.746232	1.463595	0.374090	6150.382812
8326.747181	1.423923	0.374090	7501.686035
8326.748057	1.387808	0.374090	8717.405273
8326.748975	1.113710	0.374090	9739.791016
8326.749942	0.137025	0.374090	9872.293945
8326.750863	0.089773	0.374090	9954.974609
8326.751737	0.089974	0.374090	10033.612305
8326.752696	0.089905	0.374090	10119.831055
8326.753660	0.089923	0.374090	10206.516602
8326.754587	0.089985	0.374090	10289.932617
8326.755451	0.089890	0.374090	10367.597656
8326.756411	0.089912	0.374090	10453.913086
8326.757353	0.089806	0.374090	10538.509766
8326.758222	0.089982	0.374090	10616.704102
8327.733192	1.066945	0.449701	464.120911
8327.734064	1.554119	0.449701	1819.312256
8327.734924	1.551390	0.449701	3153.507812
8327.735881	1.510580	0.449701	4599.132812
8327.736833	1.467821	0.449701	5996.498535
8327.737726	1.429636	0.449701	7273.163574
8327.738618	1.393315	0.449701	8516.000977
8327.739565	1.213872	0.449701	9665.538086
8327.740522	0.173265	0.449701	9831.353516
8327.741411	0.089806	0.449701	9911.191406
8327.742322	0.089872	0.449701	9993.064453
8327.743275	0.090040	0.449701	10078.873047
8327.744196	0.089978	0.449701	10161.743164
8327.745061	0.089843	0.449701	10239.457031
8327.746028	0.089982	0.449701	10326.469727
8327.746927	0.089912	0.449701	10407.300781
8327.747854	0.089901	0.449701	10490.638672
8327.748722	0.089967	0.449701	10568.730469
8328.771004	1.051223	0.354105	443.616180
8328.771922	1.553610	0.354105	1869.829834
8328.772888	1.547172	0.354105	3364.397461
8328.773812	1.505988	0.354105	4755.929687
8328.774691	1.466364	0.354105	6044.863281
8328.775634	1.425787	0.354105	7389.380859
8328.776590	1.387214	0.354105	8715.557617
8328.777523	1.115013	0.354105	9755.865234
8328.778392	0.151729	0.354105	9887.717773
8328.779369	0.089868	0.354105	9975.518555
8328.780328	0.090007	0.354105	10061.835937
8328.781219	0.089967	0.354105	10141.996094
8328.782113	0.089916	0.354105	10222.380859
8328.783054	0.090033	0.354105	10307.101562
8328.783994	0.089868	0.354105	10391.578125
8328.784879	0.089978	0.354105	10471.208984
8328.785791	0.089945	0.354105	10553.239258
8328.786754	0.089908	0.354105	10639.821289
8329.768934	1.091162	0.403936	491.022949
8329.769841	1.557920	0.403936	1904.056274
8329.770740	1.548094	0.403936	3295.792969
8329.771688	1.506742	0.403936	4724.184570
8329.772645	1.463811	0.403936	6125.051758
8329.773568	1.424861	0.403936	7440.198242
8329.774448	1.389031	0.403936	8662.544922
8329.775404	1.115398	0.403936	9728.865234
8329.776345	0.136432	0.403936	9857.248047
8329.777267	0.089821	0.403936	9940.062500
8329.778128	0.089905	0.403936	10017.470703
8329.779091	0.089802	0.403936	10103.950195
8329.780035	0.089934	0.403936	10188.847656
8329.780908	0.089989	0.403936	10267.408203
8329.781818	0.089963	0.403936	10349.274414
8329.782761	0.089861	0.403936	10434.013672
8329.783687	0.089883	0.403936	10517.245117
8329.784559	0.089967	0.403936	10595.696289
8330.799090	1.073291	0.349207	507.666626
8330.799962	1.557440	0.349207	1865.754395
8330.800835	1.549969	0.349207	3218.877686
8330.801774	1.508016	0.349207	4634.905273
8330.802729	1.465558	0.349207	6034.512695
8330.803654	1.426978	0.349207	7354.466797
8330.804524	1.391038	0.349207	8564.669922
8330.805494	1.162745	0.349207	9692.533203
8330.806449	0.153805	0.349207	9839.416992
8330.807338	0.089828	0.349207	9919.274414
8330.808244	0.089938	0.349207	10000.757812
8330.809185	0.089894	0.349207	10085.347656
8330.810107	0.089905	0.349207	10168.240234
8330.810977	0.090000	0.349207	10246.540039
8330.811882	0.089872	0.349207	10327.874023
8330.812832	0.090040	0.349207	10413.412109
8330.813732	0.089908	0.349207	10494.330078
8330.814698	0.089996	0.349207	10581.266602
8331.802059	1.070277	0.380459	469.851654
8331.802930	1.554770	0.380459	1824.056763
8331.803794	1.549940	0.380459	3163.205078
8331.804841	1.505834	0.380459	4739.812988
8331.805743	1.465199	0.380459	6061.422363
8331.806626	1.428318	0.380459	7322.626953
8331.807592	1.389305	0.380459	8664.696289
8331.808556	1.112834	0.380459	9737.468750
8331.809485	0.138076	0.380459	9865.741211
8331.810348	0.089857	0.380459	9943.288086
8331.811369	0.089901	0.380459	10035.077148
8331.812247	0.089824	0.380459	10113.942383
8331.813122	0.089894	0.380459	10192.599609
8331.814035	0.090022	0.380459	10274.790039
8331.815050	0.090015	0.380459	10366.155273
8331.815928	0.089879	0.380459	10445.069336
8331.816804	0.089985	0.380459	10523.896484
8331.817780	0.089956	0.380459	10611.693359
8332.828127	1.094048	0.350476	505.450073
8332.829000	1.556550	0.350476	1864.318481
8332.829863	1.549768	0.350476	3201.768066
8332.830939	1.503655	0.350476	4819.700684
8332.831868	1.461808	0.350476	6177.720215
8332.832750	1.425121	0.350476	7434.676758
8332.833724	1.386039	0.350476	8784.678711
8332.834756	0.934083	0.350476	9748.652344
8332.835644	0.111204	0.350476	9847.401367
8332.836509	0.089850	0.350476	9925.121094
8332.837595	0.089967	0.350476	10022.825195
8332.838525	0.090011	0.350476	10106.535156
8332.839400	0.089989	0.350476	10185.275391
8332.840361	0.089956	0.350476	10271.723633
8332.841366	0.089875	0.350476	10362.048828
8332.842248	0.089989	0.350476	10441.418945
8332.843114	0.089934	0.350476	10519.301758
8332.844075	0.090022	0.350476	10605.812500
8333.833266	1.145922	0.362150	622.235413
8333.834331	1.563098	0.362150	2286.934814
8333.835238	1.537683	0.362150	3681.613281
8333.836100	1.497261	0.362150	4972.251953
8333.837197	1.450602	0.362150	6563.562012
8333.838187	1.409813	0.362150	7959.277344
8333.839056	1.374836	0.362150	9154.009766
8333.840077	0.609741	0.362150	9776.555664
8333.841122	0.091128	0.362150	9871.784180
8333.841994	0.089996	0.362150	9950.260742
8333.842863	0.089927	0.362150	10028.407227
8333.843874	0.089978	0.362150	10119.375000
8333.844851	0.089875	0.362150	10207.183594
8333.845722	0.089897	0.362150	10285.484375
8333.846579	0.089824	0.362150	10362.463867
8333.847696	0.089725	0.362150	10462.687500
8333.848596	0.089700	0.362150	10543.416992
8333.849473	0.090055	0.362150	10622.395508
8334.857260	1.153466	0.339736	607.876404
8334.858209	1.562710	0.339736	2090.888184
8334.859071	1.544520	0.339736	3422.264648
8334.860114	1.497913	0.339736	4984.587402
8334.861156	1.452755	0.339736	6498.358398
8334.862041	1.415438	0.339736	7751.021484
8334.862998	1.377477	0.339736	9069.266602
8334.864062	0.614030	0.339736	9722.593750
8334.864995	0.092227	0.339736	9808.641602
8334.865860	0.089930	0.339736	9886.431641
8334.866919	0.089971	0.339736	9981.710937
8334.867920	0.090011	0.339736	10071.811523
8334.868813	0.089879	0.339736	10152.073242
8334.869782	0.089993	0.339736	10239.276367
8334.870838	0.089967	0.339736	10334.281250
8334.871755	0.089941	0.339736	10416.757812
8334.872617	0.089967	0.339736	10494.309570
8334.873686	0.090015	0.339736	10590.535156
8335.864766	1.053995	0.339487	450.056030
8335.865681	1.556931	0.339487	1874.648071
8335.866644	1.546381	0.339487	3363.812500
8335.867567	1.505841	0.339487	4753.703613
8335.868436	1.466096	0.339487	6027.741211
8335.869405	1.426033	0.339487	7409.566895
8335.870359	1.387767	0.339487	8733.497070
8335.871257	1.137726	0.339487	9755.174805
8335.872188	0.158405	0.339487	9902.649414
8335.873104	0.089883	0.339487	9984.982422
8335.874028	0.089908	0.339487	10068.057617
8335.874901	0.089945	0.339487	10146.580078
8335.875826	0.089993	0.339487	10229.823242
8335.876779	0.089963	0.339487	10315.558594
8335.877708	0.089971	0.339487	10399.141602
8335.878571	0.090062	0.339487	10476.865234
8335.879534	0.089832	0.339487	10563.373047
8335.880480	0.089883	0.339487	10648.402344
8336.885725	1.072646	0.349815	492.344757
8336.886618	1.557283	0.349815	1882.998291
8336.887496	1.549717	0.349815	3243.649414
8336.888415	1.510309	0.349815	4631.623047
8336.889379	1.467070	0.349815	6045.878906
8336.890309	1.427384	0.349815	7373.346191
8336.891174	1.391634	0.349815	8577.110352
8336.892120	1.152001	0.349815	9666.903320
8336.893083	0.153179	0.349815	9814.414062
8336.894012	0.089850	0.349815	9897.884766
8336.894889	0.089967	0.349815	9976.786133
8336.895861	0.089934	0.349815	10064.202148
8336.896810	0.089919	0.349815	10149.536133
8336.897697	0.089974	0.349815	10229.343750
8336.898607	0.089923	0.349815	10311.173828
8336.899532	0.089769	0.349815	10394.209961
8336.900477	0.089843	0.349815	10479.111328
8336.901356	0.089971	0.349815	10558.195312
8337.893331	1.076338	0.342262	472.512299
8337.894197	1.554470	0.342262	1818.683472
8337.895196	1.546505	0.342262	3363.642090
8337.896146	1.504922	0.342262	4793.317871
8337.897022	1.464899	0.342262	6076.569336
8337.897940	1.426600	0.342262	7386.188477
8337.898894	1.387830	0.342262	8710.177734
8337.899817	1.121305	0.342262	9745.142578
8337.900700	0.151454	0.342262	9878.875977
8337.901623	0.089780	0.342262	9961.743164
8337.902571	0.089886	0.342262	10046.955078
8337.903502	0.089993	0.342262	10130.738281
8337.904364	0.089952	0.342262	10208.277344
8337.905326	0.090029	0.342262	10294.885742
8337.906274	0.089766	0.342262	10379.983398
8337.907156	0.089905	0.342262	10459.279297
8337.908034	0.089810	0.342262	10538.131836
8337.908968	0.089777	0.342262	10621.983398
8338.916302	1.071160	0.329557	465.954437
8338.917164	1.554254	0.329557	1805.721558
8338.918145	1.547765	0.329557	3324.079102
8338.919109	1.505669	0.329557	4775.543945
8338.919986	1.465441	0.329557	6060.735352
8338.920903	1.427432	0.329557	7369.690430
8338.921852	1.388533	0.329557	8687.408203
8338.922788	1.128831	0.329557	9743.994141
8338.923671	0.152589	0.329557	9878.730469
8338.924637	0.089835	0.329557	9965.511719
8338.925606	0.089938	0.329557	10052.661133
8338.926528	0.089967	0.329557	10135.610352
8338.927390	0.089967	0.329557	10213.162109
8338.928358	0.089985	0.329557	10300.267578
8338.929299	0.089886	0.329557	10384.850586
8338.930186	0.089985	0.329557	10464.667969
8338.931074	0.090048	0.329557	10544.629883
8338.932009	0.089960	0.329557	10628.742187
8339.922876	1.049835	0.321492	441.980621
8339.923816	1.553533	0.321492	1902.301392
8339.924751	1.546747	0.321492	3348.509766
8339.925678	1.506145	0.321492	4744.706055
8339.926561	1.466375	0.321492	6039.514648
8339.927540	1.424454	0.321492	7434.055664
8339.928495	1.385933	0.321492	8757.621094
8339.929412	1.095205	0.321492	9761.923828
8339.930278	0.146521	0.321492	9888.810547
8339.931247	0.089919	0.321492	9975.942383
8339.932197	0.090011	0.321492	10061.453125
8339.933091	0.089971	0.321492	10141.886719
8339.933995	0.089912	0.321492	10223.166992
8339.934919	0.089912	0.321492	10306.246094
8339.935840	0.090000	0.321492	10389.135742
8339.936704	0.089802	0.321492	10466.724609
8339.937720	0.089930	0.321492	10558.093750
8339.938633	0.089897	0.321492	10640.169922
8340.947006	1.174922	0.322177	645.032104
8340.947911	1.562120	0.322177	2058.750977
8340.948838	1.543136	0.322177	3489.238037
8340.949707	1.502446	0.322177	4794.863770
8340.950762	1.457256	0.322177	6332.268555
8340.951652	1.419690	0.322177	7595.792969
8340.952572	1.383149	0.322177	8868.290039
8340.953441	0.999419	0.322177	9736.785156
8340.954449	0.114250	0.322177	9851.949219
8340.955368	0.089923	0.322177	9934.588867
8340.956232	0.089952	0.322177	10012.307617
8340.957261	0.089872	0.322177	10104.786133
8340.958136	0.089813	0.322177	10183.373047
8340.959045	0.089802	0.322177	10265.002930
8340.959920	0.089978	0.322177	10343.733398
8340.960893	0.090081	0.322177	10431.381836
8340.961816	0.089879	0.322177	10514.339844
8340.962700	0.089864	0.322177	10593.780273
8341.948855	1.052300	0.331998	443.018250
8341.949889	1.559143	0.331998	2055.172119
8341.950842	1.542078	0.331998	3524.771973
8341.951725	1.502743	0.331998	4851.693848
8341.952663	1.460731	0.331998	6221.859863
8341.953727	1.416709	0.331998	7729.238281
8341.954625	1.380190	0.331998	8968.649414
8341.955511	0.955800	0.331998	9815.488281
8341.956442	0.116975	0.331998	9924.392578
8341.957440	0.089861	0.331998	10014.073242
8341.958365	0.089879	0.331998	10097.211914
8341.959234	0.089894	0.331998	10175.330078
8341.960277	0.089923	0.331998	10269.120117
8341.961161	0.089908	0.331998	10348.599609
8341.962023	0.089963	0.331998	10426.148437
8341.962884	0.089974	0.331998	10503.616211
8341.963946	0.090106	0.331998	10599.308594
8341.964838	0.090059	0.331998	10679.640625
8342.978488	1.049777	0.307377	443.005768
8342.979464	1.555060	0.307377	1960.744141
8342.980471	1.542436	0.307377	3513.977539
8342.981357	1.502769	0.307377	4845.430664
8342.982219	1.462877	0.307377	6106.430664
8342.983305	1.419045	0.307377	7647.513672
8342.984223	1.381575	0.307377	8915.798828
8342.985100	1.010266	0.307377	9801.801758
8342.986067	0.122655	0.307377	9920.409180
8342.987077	0.089843	0.307377	10011.150391
8342.987967	0.089886	0.307377	10091.149414
8342.988846	0.089923	0.307377	10170.191406
8342.989806	0.089960	0.307377	10256.552734
8342.990754	0.089864	0.307377	10341.744141
8342.991668	0.089934	0.307377	10423.944336
8342.992531	0.089989	0.307377	10501.604492
8342.993550	0.090048	0.307377	10593.363281
8342.994432	0.089985	0.307377	10672.730469
8343.975951	1.128380	0.333654	558.548157
8343.976977	1.562780	0.333654	2161.959961
8343.977850	1.542374	0.333654	3508.452637
8343.978811	1.499817	0.333654	4949.776367
8343.979866	1.452737	0.333654	6482.413574
8343.980794	1.414200	0.333654	7794.791504
8343.981664	1.378282	0.333654	8993.897461
8343.982747	0.661512	0.333654	9710.315430
8343.983747	0.091677	0.333654	9801.992187
8343.984636	0.089905	0.333654	9881.917969
8343.985499	0.089967	0.333654	9959.559570
8343.986580	0.089930	0.333654	10056.774414
8343.987492	0.089934	0.333654	10138.793945
8343.988369	0.089919	0.333654	10217.653320
8343.989354	0.089945	0.333654	10306.249023
8343.990354	0.089989	0.333654	10396.238281
8343.991232	0.089927	0.333654	10475.194336
8343.992089	0.089883	0.333654	10552.223633
8345.010155	1.104836	0.297467	522.587646
8345.011030	1.557550	0.297467	1885.443848
8345.011896	1.549340	0.297467	3227.171875
8345.012922	1.504622	0.297467	4770.913574
8345.013878	1.462141	0.297467	6168.720703
8345.014757	1.425253	0.297467	7421.517578
8345.015688	1.387548	0.297467	8713.324219
8345.016757	0.951255	0.297467	9730.215820
8345.017647	0.112947	0.297467	9830.738281
8345.018507	0.089916	0.297467	9908.065430
8345.019553	0.090037	0.297467	10002.244141
8345.020502	0.089912	0.297467	10087.570312
8345.021372	0.089912	0.297467	10165.793945
8345.022263	0.089982	0.297467	10245.967773
8345.023343	0.089989	0.297467	10343.156250
8345.024222	0.089956	0.297467	10422.227539
8345.025079	0.089978	0.297467	10499.338867
8345.026084	0.090062	0.297467	10589.851562
8346.002956	1.127571	0.346770	567.168091
8346.003877	1.560948	0.346770	2004.801636
8346.004739	1.546392	0.346770	3337.791260
8346.005794	1.499897	0.346770	4920.183105
8346.006809	1.455033	0.346770	6397.041504
8346.007706	1.417647	0.346770	7668.670410
8346.008682	1.378780	0.346770	9014.360352
8346.009740	0.676154	0.346770	9729.730469
8346.010649	0.094021	0.346770	9815.195312
8346.011512	0.089971	0.346770	9892.839844
8346.012603	0.089974	0.346770	9991.001953
8346.013592	0.089886	0.346770	10079.899414
8346.014489	0.089945	0.346770	10160.580078
8346.015473	0.089960	0.346770	10249.100586
8346.016522	0.089894	0.346770	10343.399414
8346.017417	0.090011	0.346770	10423.958984
8346.018277	0.090000	0.346770	10501.359375
8346.019362	0.089945	0.346770	10598.950195
8347.040200	1.071273	0.305036	466.003845
8347.041075	1.555334	0.305036	1826.921387
8347.041935	1.549900	0.305036	3159.835449
8347.043028	1.503955	0.305036	4803.658203
8347.043935	1.463016	0.305036	6130.614258
8347.044814	1.426168	0.305036	7384.215820
8347.045806	1.386288	0.305036	8759.413086
8347.046813	0.979303	0.305036	9745.571289
8347.047712	0.115243	0.305036	9849.174805
8347.048577	0.089795	0.305036	9926.847656
8347.049684	0.090059	0.305036	10026.542969
8347.050597	0.089927	0.305036	10108.646484
8347.051473	0.089978	0.305036	10187.466797
8347.052482	0.090011	0.305036	10278.288086
8347.053465	0.089916	0.305036	10366.675781
8347.054347	0.089989	0.305036	10446.045898
8347.055207	0.090048	0.305036	10523.487305
8347.056296	0.089982	0.305036	10621.477539
8348.031415	1.046210	0.354685	439.408081
8348.032436	1.557642	0.354685	2029.760132
8348.033401	1.541521	0.354685	3517.327881
8348.034328	1.500831	0.354685	4908.598633
8348.035196	1.460222	0.354685	6176.071289
8348.036288	1.417192	0.354685	7723.645508
8348.037181	1.380366	0.354685	8956.312500
8348.038062	0.968331	0.354685	9809.412109
8348.039086	0.111541	0.354685	9923.629883
8348.040081	0.089938	0.354685	10013.118164
8348.040958	0.089985	0.354685	10092.035156
8348.041822	0.090040	0.354685	10169.830078
8348.042908	0.089960	0.354685	10267.526367
8348.043828	0.089923	0.354685	10350.255859
8348.044708	0.089993	0.354685	10429.449219
8348.045690	0.090059	0.354685	10517.886719
8348.046688	0.089788	0.354685	10607.495117
8348.047573	0.089938	0.354685	10687.089844
8349.068852	1.151298	0.309451	630.911133
8349.069867	1.564102	0.309451	2218.474121
8349.070760	1.540155	0.309451	3593.832520
8349.071621	1.500194	0.309451	4885.499512
8349.072733	1.452737	0.309451	6500.942871
8349.073655	1.413875	0.309451	7804.535156
8349.074536	1.378722	0.309451	9019.189453
8349.075538	0.745598	0.309451	9766.279297
8349.076536	0.093563	0.309451	9859.655273
8349.077415	0.089897	0.309451	9938.674805
8349.078272	0.089971	0.309451	10015.779297
8349.079342	0.089938	0.309451	10112.012695
8349.080253	0.089912	0.309451	10193.922852
8349.081121	0.089938	0.309451	10271.989258
8349.082093	0.090026	0.309451	10359.494141
8349.083118	0.089956	0.309451	10451.699219
8349.084010	0.090000	0.309451	10531.979492
8349.084874	0.089978	0.309451	10609.720703
8350.061602	1.135100	0.360708	600.467957
8350.062655	1.562988	0.360708	2246.294678
8350.063577	1.537958	0.360708	3664.291748
8350.064442	1.497605	0.360708	4959.720215
8350.065541	1.450463	0.360708	6553.778809
8350.066531	1.409542	0.360708	7949.225586
8350.067426	1.373892	0.360708	9178.858398
8350.068427	0.603571	0.360708	9783.032227
8350.069472	0.091263	0.360708	9878.402344
8350.070350	0.089989	0.360708	9957.413086
8350.071219	0.089996	0.360708	10035.620117
8350.072322	0.090026	0.360708	10134.917969
8350.073285	0.089938	0.360708	10221.528320
8350.074145	0.090011	0.360708	10298.937500
8350.075165	0.090029	0.360708	10390.767578
8350.076225	0.090000	0.360708	10486.167969
8350.077098	0.089978	0.360708	10564.718750
8350.078018	0.089971	0.360708	10647.492187
8351.094815	1.125809	0.309383	591.049866
8351.095881	1.562864	0.309383	2257.062744
8351.096811	1.537354	0.309383	3686.801514
8351.097676	1.497023	0.309383	4981.726074
8351.098771	1.450089	0.309383	6569.573730
8351.099767	1.408455	0.309383	7972.394531
8351.100667	1.372804	0.309383	9207.917969
8351.101681	0.567250	0.309383	9783.109375
8351.102724	0.090747	0.309383	9877.758789
8351.103601	0.089795	0.309383	9956.508789
8351.104461	0.089949	0.309383	10033.864258
8351.105491	0.090062	0.309383	10126.627930
8351.106460	0.089828	0.309383	10213.670898
8351.107375	0.089996	0.309383	10296.017578
8351.108234	0.090070	0.309383	10373.387695
8351.109324	0.090106	0.309383	10471.603516
8351.110221	0.089974	0.309383	10552.310547
8351.111099	0.089872	0.309383	10631.217773
8352.092682	1.121243	0.347898	558.378845
8352.093561	1.559022	0.347898	1928.759277
8352.094482	1.546099	0.347898	3352.716064
8352.095556	1.498931	0.347898	4962.567383
8352.096501	1.457124	0.347898	6339.549805
8352.097363	1.420704	0.347898	7564.197266
8352.098413	1.378865	0.347898	9012.004883
8352.099444	0.705326	0.347898	9739.196289
8352.100320	0.096500	0.347898	9823.730469
8352.101284	0.089846	0.347898	9910.341797
8352.102322	0.089854	0.347898	10003.609375
8352.103249	0.089923	0.347898	10086.967773
8352.104108	0.089963	0.347898	10164.246094
8352.105147	0.090004	0.347898	10257.759766
8352.106156	0.089916	0.347898	10348.484375
8352.107040	0.089883	0.347898	10427.940430
8352.107997	0.089960	0.347898	10514.032227
8352.109061	0.089963	0.347898	10609.752930
8353.121800	1.148408	0.297906	552.384338
8353.122732	1.560666	0.297906	2006.925537
8353.123597	1.546263	0.297906	3344.443359
8353.124573	1.504065	0.297906	4812.410645
8353.125530	1.461815	0.297906	6211.367676
8353.126424	1.423813	0.297906	7484.256836
8353.127363	1.385581	0.297906	8785.317383
8353.128440	0.870934	0.297906	9723.313477
8353.129455	0.097965	0.297906	9822.748047
8353.130328	0.089883	0.297906	9901.215820
8353.131288	0.089930	0.297906	9987.548828
8353.132344	0.089894	0.297906	10082.476562
8353.133251	0.089934	0.297906	10164.046875
8353.134120	0.089985	0.297906	10242.244141
8353.135204	0.090011	0.297906	10339.816406
8353.136190	0.089938	0.297906	10428.495117
8353.137078	0.089978	0.297906	10508.395508
8353.138049	0.090073	0.297906	10595.856445
8354.124767	1.078491	0.324405	497.184448
8354.125663	1.557565	0.324405	1892.762451
8354.126525	1.549105	0.324405	3228.091064
8354.127504	1.507412	0.324405	4703.847656
8354.128455	1.464774	0.324405	6096.847656
8354.129342	1.426871	0.324405	7362.482422
8354.130231	1.390342	0.324405	8598.496094
8354.131166	1.147086	0.324405	9671.021484
8354.132118	0.156482	0.324405	9819.992187
8354.133006	0.089897	0.324405	9899.821289
8354.133917	0.089941	0.324405	9981.757812
8354.134882	0.089916	0.324405	10068.526367
8354.135800	0.089985	0.324405	10151.132812
8354.136671	0.090033	0.324405	10229.551758
8354.137757	0.090026	0.324405	10327.319336
8354.138803	0.089996	0.324405	10421.455078
8354.139743	0.089974	0.324405	10506.031250
8354.140609	0.089963	0.324405	10583.939453
8355.147263	1.133895	0.294192	554.474792
8355.148208	1.560707	0.294192	2029.342773
8355.149130	1.543967	0.294192	3452.880615
8355.150009	1.504186	0.294192	4775.060059
8355.150977	1.461768	0.294192	6190.050781
8355.151935	1.422268	0.294192	7552.583496
8355.152825	1.385610	0.294192	8785.776367
8355.153742	1.014683	0.294192	9716.240234
8355.154840	0.107003	0.294192	9833.729492
8355.155846	0.089879	0.294192	9924.147461
8355.156737	0.089982	0.294192	10004.321289
8355.157689	0.090073	0.294192	10090.071289
8355.158730	0.089934	0.294192	10183.692383
8355.159646	0.090015	0.294192	10266.145508
8355.160503	0.090004	0.294192	10343.278320
8355.161574	0.090026	0.294192	10439.695312
8355.162573	0.089912	0.294192	10529.517578
8355.163447	0.090011	0.294192	10608.187500
8356.157441	1.131980	0.292782	546.746338
8356.158329	1.558495	0.292782	1930.689819
8356.159200	1.548625	0.292782	3279.542480
8356.160115	1.507701	0.292782	4659.089355
8356.161077	1.464913	0.292782	6068.335937
8356.162011	1.425604	0.292782	7399.850586
8356.162891	1.389730	0.292782	8622.813477
8356.163852	1.152557	0.292782	9730.420898
8356.164792	0.146257	0.292782	9867.902344
8356.165703	0.089857	0.292782	9949.762695
8356.166567	0.090026	0.292782	10027.544922
8356.167539	0.089905	0.292782	10114.932617
8356.168489	0.089989	0.292782	10200.421875
8356.169376	0.089971	0.292782	10280.225586
8356.170311	0.089916	0.292782	10364.296875
8356.171261	0.089905	0.292782	10449.706055
8356.172171	0.089868	0.292782	10531.486328
8356.173050	0.089897	0.292782	10610.505859
8357.173730	1.083025	0.286079	501.440521
8357.174630	1.557784	0.286079	1903.446533
8357.175509	1.548746	0.286079	3264.794434
8357.176426	1.509122	0.286079	4648.659668
8357.177393	1.465770	0.286079	6066.059570
8357.178320	1.426355	0.286079	7388.290527
8357.179186	1.390745	0.286079	8592.675781
8357.180115	1.167114	0.286079	9676.924805
8357.181069	0.158152	0.286079	9827.801758
8357.181995	0.089883	0.286079	9911.033203
8357.182871	0.089843	0.286079	9989.735352
8357.183852	0.089949	0.286079	10077.974609
8357.184779	0.089854	0.286079	10161.268555
8357.185645	0.089886	0.286079	10239.110352
8357.186617	0.089945	0.286079	10326.537109
8357.187540	0.089916	0.286079	10409.529297
8357.188462	0.090000	0.286079	10492.509766
8357.189324	0.089916	0.286079	10570.017578
8358.187481	1.086552	0.288569	483.515442
8358.188360	1.556082	0.288569	1851.311035
8358.189288	1.548409	0.288569	3288.234863
8358.190252	1.506848	0.288569	4740.836426
8358.191179	1.464628	0.288569	6098.546387
8358.192039	1.427809	0.288569	7326.461914
8358.192992	1.388101	0.288569	8649.322266
8358.193948	1.098900	0.288569	9699.871094
8358.194879	0.140621	0.288569	9830.789062
8358.195748	0.089799	0.288569	9908.824219
8358.196723	0.089916	0.288569	9996.492187
8358.197661	0.089952	0.288569	10080.867187
8358.198553	0.089952	0.288569	10161.104492
8358.199441	0.089952	0.288569	10240.982422
8358.200383	0.089960	0.288569	10325.724609
8358.201335	0.089916	0.288569	10411.324219
8358.202217	0.090026	0.288569	10490.726562
8358.203128	0.090051	0.288569	10572.763672
8359.199234	1.140505	0.292661	566.831177
8359.200198	1.560641	0.292661	2071.289062
8359.201125	1.543231	0.292661	3501.864258
8359.201986	1.503658	0.292661	4796.514160
8359.202941	1.461566	0.292661	6192.309570
8359.203889	1.421993	0.292661	7540.359375
8359.204780	1.385936	0.292661	8775.228516
8359.205703	1.086914	0.292661	9778.450195
8359.206630	0.127529	0.292661	9896.669922
8359.207550	0.089835	0.292661	9979.318359
8359.208416	0.089890	0.292661	10057.163086
8359.209390	0.089941	0.292661	10144.765625
8359.210338	0.089839	0.292661	10229.932617
8359.211224	0.089996	0.292661	10309.668945
8359.212127	0.090018	0.292661	10390.955078
8359.213071	0.089897	0.292661	10475.818359
8359.213999	0.089894	0.292661	10559.240234
8359.214893	0.089949	0.292661	10639.654297
8360.218037	1.053644	0.296577	441.476776
8360.218997	1.558217	0.296577	1937.364746
8360.219930	1.545699	0.296577	3379.502197
8360.220823	1.506324	0.296577	4724.649902
8360.221736	1.465510	0.296577	6062.660645
8360.222685	1.425037	0.296577	7415.020508
8360.223624	1.387068	0.296577	8717.477539
8360.224514	1.162302	0.296577	9751.926758
8360.225439	0.160767	0.296577	9900.635742
8360.226404	0.089872	0.296577	9987.362305
8360.227318	0.089952	0.296577	10069.579102
8360.228186	0.089919	0.296577	10147.628906
8360.229107	0.089883	0.296577	10230.411133
8360.230041	0.089996	0.296577	10314.467773
8360.230963	0.089960	0.296577	10397.410156
8360.231832	0.090011	0.296577	10475.629883
8360.232800	0.089996	0.296577	10562.746094
8360.233754	0.089993	0.296577	10648.598633
8361.225672	1.069036	0.316263	466.099548
8361.226551	1.554895	0.316263	1832.852295
8361.227425	1.550566	0.316263	3188.047363
8361.228393	1.510166	0.316263	4649.888184
8361.229321	1.467228	0.316263	6011.475586
8361.230246	1.428157	0.316263	7332.520508
8361.231116	1.392429	0.316263	8543.933594
8361.232080	1.156919	0.316263	9659.203125
8361.233041	0.158580	0.316263	9811.598633
8361.233962	0.089883	0.316263	9894.380859
8361.234839	0.089930	0.316263	9973.250000
8361.235802	0.090000	0.316263	10059.919922
8361.236756	0.089971	0.316263	10145.751953
8361.237643	0.090070	0.316263	10225.643555
8361.238507	0.089971	0.316263	10303.377930
8361.239476	0.090004	0.316263	10390.591797
8361.240405	0.089967	0.316263	10474.170898
8361.241266	0.090004	0.316263	10551.664062
8362.247604	1.044386	0.310410	437.597748
8362.248491	1.552452	0.310410	1814.623047
8362.249448	1.547183	0.310410	3295.276855
8362.250399	1.505914	0.310410	4727.401367
8362.251275	1.466550	0.310410	6012.099609
8362.252203	1.427531	0.310410	7336.847656
8362.253160	1.389053	0.310410	8666.170898
8362.254068	1.162599	0.310410	9721.810547
8362.254946	0.169882	0.310410	9870.966797
8362.255902	0.089857	0.310410	9956.870117
8362.256860	0.089982	0.310410	10043.072266
8362.257753	0.089938	0.310410	10123.386719
8362.258632	0.089923	0.310410	10202.428711
8362.259593	0.089883	0.310410	10288.805664
8362.260516	0.090073	0.310410	10371.943359
8362.261378	0.089978	0.310410	10449.504883
8362.262358	0.089956	0.310410	10537.662109
8362.263305	0.089971	0.310410	10622.864258
8363.252191	1.088082	0.332481	483.108490
8363.253072	1.555580	0.332481	1853.574341
8363.253940	1.550072	0.332481	3199.036621
8363.254915	1.508492	0.332481	4669.816895
8363.255820	1.466646	0.332481	5997.130859
8363.256734	1.428285	0.332481	7302.583008
8363.257615	1.392305	0.332481	8529.203125
8363.258561	1.205453	0.332481	9669.561523
8363.259515	0.168014	0.332481	9829.846680
8363.260431	0.089941	0.332481	9912.233398
8363.261292	0.089985	0.332481	9989.710937
8363.262250	0.089982	0.332481	10075.913086
8363.263206	0.089989	0.332481	10161.942383
8363.264096	0.090011	0.332481	10242.051758
8363.264988	0.090015	0.332481	10322.344727
8363.265921	0.090018	0.332481	10406.332031
8363.266864	0.089897	0.332481	10491.105469
8363.267753	0.089952	0.332481	10571.073242
8364.276711	1.087874	0.311308	506.949097
8364.277600	1.557909	0.311308	1891.930054
8364.278513	1.547640	0.311308	3304.925781
8364.279488	1.505002	0.311308	4772.303223
8364.280419	1.462994	0.311308	6134.351074
8364.281287	1.426238	0.311308	7372.325684
8364.282242	1.387815	0.311308	8697.688477
8364.283179	1.084622	0.311308	9713.978516
8364.284114	0.139358	0.311308	9844.278320
8364.284971	0.089832	0.311308	9921.263672
8364.285921	0.089894	0.311308	10006.663086
8364.286871	0.089938	0.311308	10092.103516
8364.287763	0.089993	0.311308	10172.376953
8364.288676	0.089978	0.311308	10254.527344
8364.289620	0.089989	0.311308	10339.476562
8364.290526	0.089952	0.311308	10420.973633
8364.291390	0.089949	0.311308	10498.689453
8364.292366	0.089985	0.311308	10586.515625
8365.280193	1.050304	0.351076	444.278564
8365.281105	1.552698	0.351076	1860.338989
8365.282052	1.546604	0.351076	3324.973145
8365.282971	1.506541	0.351076	4709.483887
8365.283843	1.467045	0.351076	5988.747070
8365.284807	1.426589	0.351076	7363.979492
8365.285738	1.388375	0.351076	8656.556641
8365.286656	1.168466	0.351076	9729.208008
8365.287538	0.167179	0.351076	9876.660156
8365.288508	0.089835	0.351076	9963.800781
8365.289435	0.089956	0.351076	10047.190430
8365.290347	0.090029	0.351076	10129.296875
8365.291206	0.089916	0.351076	10206.534180
8365.292177	0.089861	0.351076	10293.789062
8365.293127	0.090026	0.351076	10379.313477
8365.294001	0.090081	0.351076	10458.043945
8365.294908	0.090088	0.351076	10539.753906
8365.295859	0.089949	0.351076	10625.294922
8366.304188	1.074756	0.321045	457.845978
8366.305181	1.559641	0.321045	2006.569580
8366.306105	1.544788	0.321045	3433.953125
8366.306974	1.505775	0.321045	4742.471680
8366.307916	1.464302	0.321045	6121.843750
8366.308860	1.424286	0.321045	7466.369629
8366.309786	1.386632	0.321045	8750.390625
8366.310663	1.156780	0.321045	9764.886719
8366.311611	0.138457	0.321045	9896.143555
8366.312574	0.089846	0.321045	9982.665039
8366.313506	0.089941	0.321045	10066.490234
8366.314369	0.089846	0.321045	10144.027344
8366.315332	0.089879	0.321045	10230.581055
8366.316258	0.089971	0.321045	10313.893555
8366.317120	0.089996	0.321045	10391.470703
8366.318126	0.089894	0.321045	10481.904297
8366.319031	0.089905	0.321045	10563.268555
8366.319950	0.089978	0.321045	10645.958008
8367.308767	1.071218	0.352442	491.689178
8367.309656	1.557191	0.352442	1876.032104
8367.310590	1.546487	0.352442	3320.450684
8367.311576	1.503347	0.352442	4802.750977
8367.312499	1.462218	0.352442	6152.377930
8367.313374	1.425110	0.352442	7399.349121
8367.314450	1.382688	0.352442	8887.121094
8367.315351	0.996365	0.352442	9784.845703
8367.316225	0.122487	0.352442	9891.899414
8367.317133	0.089813	0.352442	9973.450195
8367.318151	0.089912	0.352442	10064.980469
8367.319037	0.089923	0.352442	10144.652344
8367.319902	0.089923	0.352442	10222.435547
8367.320898	0.090015	0.352442	10312.089844
8367.321813	0.089886	0.352442	10394.335937
8367.322732	0.089927	0.352442	10476.978516
8367.323595	0.089901	0.352442	10554.563477
8367.324637	0.089941	0.352442	10648.282227
8368.332730	1.053530	0.314825	445.643341
8368.333597	1.552511	0.314825	1791.670288
8368.334658	1.544000	0.314825	3429.854492
8368.335550	1.503926	0.314825	4771.356445
8368.336469	1.463328	0.314825	6116.154297
8368.337341	1.425659	0.314825	7359.329102
8368.338350	1.385991	0.314825	8757.793945
8368.339272	1.086500	0.314825	9759.546875
8368.340140	0.144338	0.314825	9884.833008
8368.341187	0.089777	0.314825	9978.829102
8368.342076	0.089916	0.314825	10058.764648
8368.342982	0.089949	0.314825	10140.257812
8368.343861	0.089996	0.314825	10219.364258
8368.344829	0.089875	0.314825	10306.363281
8368.345757	0.089864	0.314825	10389.757812
8368.346638	0.089949	0.314825	10469.002930
8368.347531	0.089894	0.314825	10549.278320
8368.348495	0.090044	0.314825	10636.081055
8369.335270	1.075444	0.362013	497.930725
8369.336157	1.556748	0.362013	1878.766113
8369.337095	1.546454	0.362013	3329.339844
8369.338080	1.503351	0.362013	4810.140625
8369.339001	1.462515	0.362013	6157.116699
8369.339871	1.425311	0.362013	7397.137695
8369.340891	1.384493	0.362013	8809.321289
8369.341790	1.058101	0.362013	9760.553711
8369.342669	0.134330	0.362013	9878.629883
8369.343559	0.089894	0.362013	9958.635742
8369.344590	0.089908	0.362013	10051.331055
8369.345482	0.089886	0.362013	10131.509766
8369.346360	0.089952	0.362013	10210.488281
8369.347374	0.089916	0.362013	10301.663086
8369.348293	0.089949	0.362013	10384.326172
8369.349214	0.089938	0.362013	10467.159180
8369.350077	0.089890	0.362013	10544.734375
8369.351116	0.089934	0.362013	10638.175781
8370.360349	1.110106	0.317295	580.585510
8370.361314	1.562153	0.317295	2088.063477
8370.362232	1.542092	0.317295	3503.704102
8370.363102	1.502977	0.317295	4811.294434
8370.364139	1.457930	0.317295	6323.167480
8370.365024	1.420269	0.317295	7580.104980
8370.365892	1.384753	0.317295	8782.071289
8370.366778	1.012317	0.317295	9678.984375
8370.367835	0.107908	0.317295	9793.042969
8370.368731	0.089912	0.317295	9873.604492
8370.369608	0.090029	0.317295	9952.560547
8370.370594	0.089967	0.317295	10041.267578
8370.371537	0.089901	0.317295	10126.043945
8370.372459	0.090011	0.317295	10209.034180
8370.373321	0.090084	0.317295	10286.686523
8370.374348	0.089901	0.317295	10379.014648
8370.375230	0.089989	0.317295	10458.384766
8370.376148	0.090033	0.317295	10541.035156
8371.364330	1.110322	0.363185	509.637909
8371.365211	1.556704	0.363185	1881.094238
8371.366084	1.549303	0.363185	3233.635742
8371.367099	1.505746	0.363185	4761.967773
8371.368035	1.462925	0.363185	6131.265625
8371.368961	1.424484	0.363185	7450.337402
8371.369826	1.388141	0.363185	8651.079102
8371.370856	1.030748	0.363185	9712.750000
8371.371754	0.128463	0.363185	9828.110352
8371.372625	0.089963	0.363185	9906.468750
8371.373591	0.090128	0.363185	9993.532227
8371.374545	0.090029	0.363185	10079.419922
8371.375461	0.090048	0.363185	10161.903320
8371.376329	0.090077	0.363185	10240.089844
8371.377358	0.090026	0.363185	10332.726562
8371.378231	0.089989	0.363185	10411.287109
8371.379105	0.090037	0.363185	10489.979492
8371.379986	0.089989	0.363185	10569.259766
8372.387334	1.122404	0.326282	546.610535
8372.388221	1.558195	0.326282	1928.729248
8372.389093	1.548098	0.326282	3278.670898
8372.390031	1.507046	0.326282	4692.279785
8372.391049	1.462093	0.326282	6180.690918
8372.391974	1.422880	0.326282	7496.854492
8372.392842	1.387075	0.326282	8700.835937
8372.393932	0.920874	0.326282	9704.588867
8372.394826	0.110083	0.326282	9803.002930
8372.395704	0.089901	0.326282	9881.936523
8372.396600	0.089945	0.326282	9962.527344
8372.397627	0.089916	0.326282	10054.871094
8372.398554	0.089912	0.326282	10138.219727
8372.399429	0.089974	0.326282	10216.947266
8372.400439	0.090011	0.326282	10307.858398
8372.401350	0.089952	0.326282	10389.804687
8372.402265	0.089967	0.326282	10472.125000
8372.403128	0.089993	0.326282	10549.789062
8373.391807	1.054838	0.361477	452.525330
8373.392702	1.552855	0.361477	1842.330811
8373.393798	1.541748	0.361477	3532.086670
8373.394685	1.501014	0.361477	4863.486328
8373.395568	1.461987	0.361477	6154.420898
8373.396568	1.420137	0.361477	7574.557617
8373.397542	1.380132	0.361477	8918.805664
8373.398472	0.933062	0.361477	9786.552734
8373.399334	0.113525	0.361477	9884.412109
8373.400443	0.089908	0.361477	9984.120117
8373.401342	0.089952	0.361477	10064.987305
8373.402208	0.090033	0.361477	10142.956055
8373.403277	0.090055	0.361477	10239.224609
8373.404257	0.089945	0.361477	10327.371094
8373.405133	0.089967	0.361477	10406.182617
8373.405994	0.089952	0.361477	10483.631836
8373.407099	0.089927	0.361477	10583.000977
8373.407978	0.089967	0.361477	10662.082031
8374.416442	1.175361	0.317992	651.150146
8374.417423	1.563483	0.317992	2184.926758
8374.418353	1.539203	0.317992	3616.385254
8374.419220	1.498605	0.317992	4915.675781
8374.420321	1.452286	0.317992	6514.643066
8374.421230	1.414178	0.317992	7800.131348
8374.422096	1.379322	0.317992	8994.625000
8374.423119	0.749707	0.317992	9761.575195
8374.424107	0.093867	0.317992	9854.316406
8374.424996	0.089941	0.317992	9934.274414
8374.425852	0.089905	0.317992	10011.232422
8374.426924	0.090037	0.317992	10107.751953
8374.427831	0.089908	0.317992	10189.298828
8374.428710	0.089960	0.317992	10268.373047
8374.429693	0.090026	0.317992	10356.868164
8374.430692	0.089908	0.317992	10446.686523
8374.431579	0.090018	0.317992	10526.533203
8374.432439	0.090029	0.317992	10603.958008
8375.420409	1.117723	0.359560	539.860413
8375.421286	1.558085	0.359560	1906.300781
8375.422237	1.545820	0.359560	3376.375977
8375.423294	1.498330	0.359560	4960.110840
8375.424238	1.456626	0.359560	6335.166016
8375.425104	1.419811	0.359560	7564.722168
8375.426171	1.377675	0.359560	9034.701172
8375.427193	0.689165	0.359560	9739.027344
8375.428069	0.096039	0.359560	9823.157227
8375.429053	0.089960	0.359560	9911.677734
8375.430110	0.089960	0.359560	10006.765625
8375.431016	0.090037	0.359560	10088.338867
8375.431873	0.090033	0.359560	10165.497070
8375.432945	0.090055	0.359560	10262.036133
8375.433940	0.089875	0.359560	10351.461914
8375.434813	0.089960	0.359560	10429.997070
8375.435794	0.090055	0.359560	10518.340820
8375.436832	0.089912	0.359560	10611.669922
8376.443424	1.139041	0.329569	578.632629
8376.444316	1.560194	0.329569	1970.325684
8376.445178	1.545718	0.329569	3302.734375
8376.446275	1.498927	0.329569	4947.057129
8376.447244	1.455656	0.329569	6357.587402
8376.448115	1.419481	0.329569	7593.955566
8376.449118	1.379458	0.329569	8977.551758
8376.450167	0.731697	0.329569	9745.101562
8376.451046	0.096636	0.329569	9830.043945
8376.451915	0.089864	0.329569	9908.135742
8376.453028	0.089996	0.329569	10008.301758
8376.453987	0.089780	0.329569	10094.401367
8376.454854	0.089967	0.329569	10172.402344
8376.455740	0.089982	0.329569	10252.125977
8376.456839	0.090026	0.329569	10351.064453
8376.457735	0.089879	0.329569	10431.595703
8376.458602	0.089912	0.329569	10509.549805
8376.459629	0.089989	0.329569	10601.968750
8377.447866	1.047356	0.355419	439.889465
8377.448842	1.553335	0.355419	1955.944336
8377.449896	1.539939	0.355419	3579.040039
8377.450797	1.499033	0.355419	4929.668945
8377.451665	1.459552	0.355419	6196.560059
8377.452725	1.415830	0.355419	7697.339844
8377.453724	1.375763	0.355419	9071.726562
8377.454626	0.814036	0.355419	9805.986328
8377.455607	0.100481	0.355419	9904.558594
8377.456661	0.089941	0.355419	9999.356445
8377.457566	0.089941	0.355419	10080.753906
8377.458429	0.089905	0.355419	10158.341797
8377.459524	0.090033	0.355419	10256.927734
8377.460500	0.089996	0.355419	10344.763672
8377.461368	0.089912	0.355419	10422.807617
8377.462482	0.090073	0.355419	10523.149414
8377.463515	0.089861	0.355419	10615.975586
8377.464403	0.089923	0.355419	10695.827148
8378.469421	1.161500	0.322576	621.402588
8378.470398	1.563098	0.322576	2148.549316
8378.471264	1.542729	0.322576	3484.553223
8378.472369	1.493199	0.322576	5134.538574
8378.473402	1.448306	0.322576	6630.638184
8378.474297	1.410758	0.322576	7893.266602
8378.475226	1.373712	0.322576	9169.445312
8378.476284	0.534012	0.322576	9734.430664
8378.477225	0.091113	0.322576	9820.167969
8378.478100	0.089894	0.322576	9898.825195
8378.479052	0.089960	0.322576	9984.466797
8378.480106	0.089905	0.322576	10079.226562
8378.480987	0.089985	0.322576	10158.503906
8378.481907	0.089916	0.322576	10241.226562
8378.482963	0.089967	0.322576	10336.231445
8378.483903	0.089835	0.322576	10420.676758
8378.484778	0.089916	0.322576	10499.353516
8378.485728	0.089956	0.322576	10584.811523
8379.477952	1.057489	0.327543	452.605316
8379.478901	1.552881	0.327543	1926.289307
8379.479952	1.541206	0.327543	3546.096924
8379.480842	1.501047	0.327543	4882.029297
8379.481706	1.461987	0.327543	6145.186523
8379.482742	1.418599	0.327543	7614.854492
8379.483703	1.380238	0.327543	8941.263672
8379.484589	0.968412	0.327543	9799.276367
8379.485486	0.118176	0.327543	9905.280273
8379.486569	0.089835	0.327543	10002.572266
8379.487456	0.089923	0.327543	10082.333984
8379.488320	0.089864	0.327543	10159.976562
8379.489358	0.089952	0.327543	10253.346680
8379.490339	0.089747	0.327543	10341.388672
8379.491208	0.089960	0.327543	10419.563477
8379.492084	0.089916	0.327543	10498.330078
8379.493176	0.089912	0.327543	10596.513672
8379.494062	0.089967	0.327543	10676.224609
8380.497849	1.049377	0.298015	440.738525
8380.498779	1.552211	0.298015	1884.294434
8380.499848	1.540979	0.298015	3531.601074
8380.500749	1.500590	0.298015	4883.632324
8380.501619	1.461548	0.298015	6155.178711
8380.502652	1.418437	0.298015	7620.424805
8380.503608	1.380157	0.298015	8939.855469
8380.504494	0.969445	0.298015	9798.783203
8380.505417	0.118821	0.298015	9908.455078
8380.506480	0.089883	0.298015	10004.000977
8380.507374	0.089949	0.298015	10084.415039
8380.508241	0.090000	0.298015	10162.445312
8380.509282	0.089938	0.298015	10256.070312
8380.510246	0.089908	0.298015	10342.742187
8380.511123	0.089985	0.298015	10421.659180
8380.511985	0.090022	0.298015	10499.257812
8380.513099	0.090015	0.298015	10599.534180
8380.513972	0.089956	0.298015	10678.065430
8381.507516	1.056533	0.303663	450.083160
8381.508378	1.552698	0.303663	1788.508667
8381.509479	1.542367	0.303663	3486.654785
8381.510401	1.501058	0.303663	4870.630859
8381.511281	1.461903	0.303663	6157.105469
8381.512246	1.421821	0.303663	7529.163086
8381.513255	1.380824	0.303663	8922.414062
8381.514139	0.990553	0.303663	9798.062500
8381.514997	0.123120	0.303663	9903.699219
8381.516059	0.089897	0.303663	9999.169922
8381.516975	0.089993	0.303663	10081.603516
8381.517842	0.089985	0.303663	10159.621094
8381.518802	0.089960	0.303663	10245.982422
8381.519834	0.089960	0.303663	10338.821289
8381.520729	0.089923	0.303663	10419.302734
8381.521595	0.089952	0.303663	10497.201172
8381.522639	0.089952	0.303663	10591.111328
8381.523583	0.089886	0.303663	10675.963867
8382.525481	1.139681	0.279457	612.008850
8382.526499	1.563358	0.279457	2203.507568
8382.527389	1.539445	0.279457	3573.613281
8382.528255	1.499971	0.279457	4872.587891
8382.529347	1.452784	0.279457	6459.028320
8382.530276	1.414054	0.279457	7772.684570
8382.531158	1.378876	0.279457	8988.853516
8382.532140	0.791228	0.279457	9765.839844
8382.533140	0.094669	0.279457	9860.508789
8382.534017	0.089952	0.279457	9939.397461
8382.534875	0.089930	0.279457	10016.557617
8382.535939	0.089897	0.279457	10112.208984
8382.536867	0.090037	0.279457	10195.762695
8382.537734	0.090037	0.279457	10273.824219
8382.538692	0.089934	0.279457	10359.981445
8382.539721	0.089912	0.279457	10452.500977
8382.540623	0.089901	0.279457	10533.591797
8382.541502	0.090022	0.279457	10612.720703
8383.538111	1.064637	0.271331	454.600189
8383.539175	1.560179	0.271331	2114.631104
8383.540109	1.540748	0.271331	3553.689941
8383.540988	1.501498	0.271331	4873.506348
8383.541960	1.459065	0.271331	6291.717773
8383.542976	1.416244	0.271331	7730.621582
8383.543859	1.380429	0.271331	8949.540039
8383.544734	0.989399	0.271331	9815.264648
8383.545689	0.120981	0.271331	9930.801758
8383.546649	0.089886	0.271331	10017.092773
8383.547561	0.089985	0.271331	10099.159180
8383.548433	0.089850	0.271331	10177.507812
8383.549462	0.090055	0.271331	10270.174805
8383.550358	0.090011	0.271331	10350.824219
8383.551238	0.089949	0.271331	10429.979492
8383.552122	0.089912	0.271331	10509.461914
8383.553144	0.090051	0.271331	10601.494141
8383.554029	0.089945	0.271331	10681.095703
8384.551869	1.061375	0.251210	447.900055
8384.552916	1.560795	0.251210	2082.052246
8384.553797	1.544033	0.251210	3442.345459
8384.554668	1.505131	0.251210	4753.314453
8384.555639	1.462174	0.251210	6173.085449
8384.556595	1.421422	0.251210	7531.964844
8384.557514	1.384402	0.251210	8804.230469
8384.558392	1.098570	0.251210	9768.775391
8384.559410	0.120531	0.251210	9891.475586
8384.560313	0.089875	0.251210	9972.632812
8384.561189	0.089952	0.251210	10051.430664
8384.562113	0.089949	0.251210	10134.542969
8384.563126	0.089927	0.251210	10225.638672
8384.564035	0.089927	0.251210	10307.381836
8384.564906	0.089960	0.251210	10385.736328
8384.565910	0.089949	0.251210	10476.044922
8384.566807	0.090011	0.251210	10556.785156
8384.567703	0.089916	0.251210	10637.349609
8385.569756	1.072976	0.233542	476.401337
8385.570636	1.555225	0.233542	1844.998901
8385.571496	1.550145	0.233542	3178.123779
8385.572531	1.505446	0.233542	4736.259766
8385.573447	1.463811	0.233542	6077.110840
8385.574325	1.426813	0.233542	7329.852539
8385.575190	1.390023	0.233542	8532.222656
8385.576256	1.092766	0.233542	9697.111328
8385.577159	0.136868	0.233542	9820.703125
8385.578032	0.089821	0.233542	9899.116211
8385.579035	0.089923	0.233542	9989.308594
8385.579965	0.089886	0.233542	10072.903320
8385.580887	0.089967	0.233542	10155.852539
8385.581748	0.089971	0.233542	10233.317383
8385.582776	0.089894	0.233542	10325.728516
8385.583650	0.089839	0.233542	10404.248047
8385.584527	0.089974	0.233542	10483.155273
8385.585489	0.089989	0.233542	10569.724609
8386.577861	1.063715	0.231653	457.397278
8386.578869	1.555364	0.231653	2025.203857
8386.579813	1.542422	0.231653	3481.250000
8386.580739	1.501652	0.231653	4871.779297
8386.581608	1.461947	0.231653	6142.210937
8386.582650	1.419606	0.231653	7621.439941
8386.583529	1.382959	0.231653	8837.060547
8386.584409	1.066633	0.231653	9775.697266
8386.585366	0.136208	0.231653	9906.048828
8386.586322	0.089908	0.231653	9992.000977
8386.587224	0.089901	0.231653	10073.091797
8386.588102	0.089927	0.231653	10152.047852
8386.589131	0.089993	0.231653	10244.650391
8386.590027	0.089919	0.231653	10325.217773
8386.590899	0.089927	0.231653	10403.633789
8386.591762	0.089861	0.231653	10481.183594
8386.592818	0.089923	0.231653	10576.142578
8386.593703	0.089985	0.231653	10655.779297
8387.602454	1.135836	0.203780	566.782288
8387.603345	1.559553	0.203780	1956.344238
8387.604217	1.547179	0.203780	3305.484375
8387.605137	1.506145	0.203780	4691.137695
8387.606140	1.461687	0.203780	6157.209961
8387.607052	1.423206	0.203780	7455.173340
8387.607948	1.387269	0.203780	8698.166992
8387.608975	1.006520	0.203780	9731.863281
8387.609872	0.122102	0.203780	9841.388672
8387.610797	0.089846	0.203780	9924.496094
8387.611671	0.089923	0.203780	10003.088867
8387.612645	0.089996	0.203780	10090.745117
8387.613550	0.089956	0.203780	10172.155273
8387.614471	0.089982	0.203780	10255.028320
8387.615348	0.089985	0.203780	10333.945312
8387.616302	0.090022	0.203780	10419.826172
8387.617222	0.089835	0.203780	10502.474609
8387.618101	0.089945	0.203780	10581.536133
8388.605914	1.096289	0.208324	497.715210
8388.606801	1.556547	0.208324	1878.372070
8388.607677	1.549318	0.208324	3235.574219
8388.608678	1.506295	0.208324	4743.375977
8388.609617	1.463218	0.208324	6117.337402
8388.610548	1.424509	0.208324	7443.555664
8388.611410	1.388372	0.208324	8640.332031
8388.612434	1.060990	0.208324	9726.786133
8388.613336	0.134956	0.208324	9848.516602
8388.614211	0.089894	0.208324	9927.173828
8388.615157	0.090040	0.208324	10012.351562
8388.616110	0.089960	0.208324	10098.083008
8388.617031	0.089996	0.208324	10180.969727
8388.617908	0.089945	0.208324	10259.851562
8388.618979	0.089963	0.208324	10356.202148
8388.619864	0.089996	0.208324	10435.848633
8388.620781	0.089993	0.208324	10518.372070
8388.621644	0.089956	0.208324	10596.003906
8389.633983	1.052626	0.193605	448.418579
8389.634849	1.553690	0.193605	1793.914307
8389.635847	1.546040	0.193605	3336.862305
8389.636775	1.505577	0.193605	4734.038086
8389.637654	1.466019	0.193605	6022.668945
8389.638656	1.425004	0.193605	7450.522461
8389.639589	1.386042	0.193605	8743.700195
8389.640510	1.090474	0.193605	9748.026367
8389.641385	0.144785	0.193605	9874.712891
8389.642346	0.089788	0.193605	9960.999023
8389.643273	0.089872	0.193605	10044.310547
8389.644193	0.089941	0.193605	10127.056641
8389.645066	0.089974	0.193605	10205.604492
8389.646013	0.089967	0.193605	10290.803711
8389.646945	0.089952	0.193605	10374.639648
8389.647828	0.089996	0.193605	10454.106445
8389.648994	0.089879	0.193605	10558.905273
8389.649890	0.089945	0.193605	10639.496094
8390.632428	1.108191	0.210065	509.767822
8390.633316	1.557187	0.210065	1892.550293
8390.634185	1.549065	0.210065	3238.687500
8390.635164	1.506324	0.210065	4713.378906
8390.636095	1.463965	0.210065	6076.330078
8390.637008	1.425989	0.210065	7378.257812
8390.637883	1.389924	0.210065	8594.441406
8390.638916	1.094205	0.210065	9724.755859
8390.639808	0.140284	0.210065	9849.889648
8390.640680	0.089894	0.210065	9928.277344
8390.641638	0.089989	0.210065	10014.486328
8390.642614	0.090062	0.210065	10102.386719
8390.643539	0.089908	0.210065	10185.551758
8390.644402	0.089993	0.210065	10263.215820
8390.645441	0.089996	0.210065	10356.721680
8390.646312	0.090011	0.210065	10435.121094
8390.647225	0.089993	0.210065	10517.284180
8390.648099	0.089963	0.210065	10595.912109
8391.662550	1.075162	0.209114	477.372070
8391.663425	1.555477	0.209114	1838.414673
8391.664293	1.549889	0.209114	3183.718262
8391.665346	1.504589	0.209114	4768.050293
8391.666246	1.463708	0.209114	6085.387695
8391.667124	1.426688	0.209114	7338.020020
8391.668037	1.389170	0.209114	8606.332031
8391.669053	1.090254	0.209114	9714.030273
8391.669949	0.138032	0.209114	9837.707031
8391.670825	0.089784	0.209114	9916.357422
8391.671831	0.089897	0.209114	10006.793945
8391.672747	0.089908	0.209114	10089.150391
8391.673666	0.089945	0.209114	10171.809570
8391.674524	0.089897	0.209114	10248.941406
8391.675558	0.089908	0.209114	10341.906250
8391.676432	0.089854	0.209114	10420.438477
8391.677310	0.089890	0.209114	10499.362305
8391.678278	0.089879	0.209114	10586.365234
8392.660411	1.052300	0.214053	444.070526
8392.661484	1.559432	0.214053	2117.341309
8392.662432	1.540045	0.214053	3577.304199
8392.663303	1.500677	0.214053	4884.394531
8392.664233	1.459351	0.214053	6241.590820
8392.665289	1.415522	0.214053	7736.382812
8392.666187	1.379279	0.214053	8974.974609
8392.667062	0.955631	0.214053	9811.151367
8392.668090	0.102850	0.214053	9916.881836
8392.669044	0.089879	0.214053	10002.626953
8392.669921	0.089963	0.214053	10081.524414
8392.670815	0.089952	0.214053	10161.941406
8392.671902	0.089938	0.214053	10259.704102
8392.672790	0.089956	0.214053	10339.584961
8392.673652	0.089960	0.214053	10417.129883
8392.674684	0.089941	0.214053	10509.949219
8392.675650	0.089985	0.214053	10596.875000
8392.676523	0.089945	0.214053	10675.397461
8393.691150	1.129973	0.227548	570.636475
8393.692137	1.562516	0.227548	2112.839600
8393.693033	1.542210	0.227548	3494.659180
8393.694022	1.498297	0.227548	4976.475098
8393.695082	1.451924	0.227548	6515.514648
8393.695989	1.413534	0.227548	7797.589844
8393.696868	1.376887	0.227548	9007.874023
8393.697996	0.602479	0.227548	9687.470703
8393.698960	0.091556	0.227548	9775.731445
8393.699821	0.089897	0.227548	9853.132812
8393.700865	0.089945	0.227548	9947.035156
8393.701889	0.089919	0.227548	10039.112305
8393.702769	0.089963	0.227548	10118.280273
8393.703698	0.090059	0.227548	10201.944336
8393.704744	0.089952	0.227548	10296.034180
8393.705686	0.089864	0.227548	10380.686523
8393.706545	0.090040	0.227548	10458.031250
8393.707587	0.089993	0.227548	10551.803711
8394.685885	1.062605	0.234553	450.544495
8394.686863	1.558070	0.234553	1974.336914
8394.687796	1.544597	0.234553	3415.446045
8394.688679	1.505204	0.234553	4744.541016
8394.689594	1.464987	0.234553	6085.003906
8394.690565	1.424491	0.234553	7468.184570
8394.691493	1.386281	0.234553	8754.653320
8394.692361	1.158453	0.234553	9760.190430
8394.693266	0.153988	0.234553	9899.549805
8394.694209	0.089791	0.234553	9984.222656
8394.695135	0.089945	0.234553	10067.511719
8394.696010	0.089941	0.234553	10146.210937
8394.696980	0.089949	0.234553	10233.460937
8394.697938	0.089993	0.234553	10319.673828
8394.698827	0.089993	0.234553	10399.677734
8394.699743	0.089894	0.234553	10482.020508
8394.700691	0.089919	0.234553	10567.263672
8394.701616	0.089883	0.234553	10650.405273
8395.718591	1.053816	0.233941	445.764099
8395.719533	1.554349	0.233941	1909.961182
8395.720488	1.545447	0.233941	3385.862793
8395.721416	1.504402	0.233941	4781.947754
8395.722279	1.464917	0.233941	6046.170898
8395.723230	1.425282	0.233941	7401.614258
8395.724162	1.386559	0.233941	8693.886719
8395.725091	1.131002	0.233941	9744.587891
8395.725960	0.156453	0.233941	9880.544922
8395.726928	0.089725	0.233941	9967.399414
8395.727878	0.089894	0.233941	10052.798828
8395.728768	0.089963	0.233941	10132.866211
8395.729676	0.089956	0.233941	10214.545898
8395.730633	0.089945	0.233941	10300.623047
8395.731552	0.089854	0.233941	10383.198242
8395.732413	0.089989	0.233941	10460.678711
8395.733344	0.089938	0.233941	10544.411133
8395.734287	0.089978	0.233941	10629.260742
8396.712951	1.094502	0.247278	518.793945
8396.713877	1.559235	0.247278	1962.645264
8396.714766	1.545934	0.247278	3336.980469
8396.715686	1.506215	0.247278	4722.697754
8396.716607	1.463566	0.247278	6070.641602
8396.717547	1.424542	0.247278	7409.711426
8396.718434	1.388763	0.247278	8641.544922
8396.719361	1.146877	0.247278	9704.700195
8396.720313	0.154167	0.247278	9851.467773
8396.721233	0.089930	0.247278	9934.204102
8396.722096	0.089883	0.247278	10011.773437
8396.723042	0.090099	0.247278	10097.006836
8396.723970	0.089963	0.247278	10180.493164
8396.724882	0.089919	0.247278	10262.500000
8396.725743	0.089908	0.247278	10339.911133
8396.726711	0.089952	0.247278	10426.985352
8396.727645	0.089952	0.247278	10511.000977
8396.728536	0.090026	0.247278	10591.213867
8397.745083	1.051549	0.235197	441.650604
8397.746001	1.554866	0.235197	1869.017334
8397.746944	1.545853	0.235197	3326.756836
8397.747876	1.505416	0.235197	4729.804687
8397.748746	1.465613	0.235197	6004.887695
8397.749722	1.425282	0.235197	7395.962891
8397.750676	1.386954	0.235197	8719.117187
8397.751562	1.157432	0.235197	9744.601562
8397.752487	0.165092	0.235197	9897.311523
8397.753429	0.089802	0.235197	9981.905273
8397.754355	0.089832	0.235197	10065.088867
8397.755229	0.089993	0.235197	10143.742187
8397.756142	0.089799	0.235197	10225.728516
8397.757088	0.089956	0.235197	10310.827148
8397.757985	0.089952	0.235197	10391.514648
8397.758895	0.089919	0.235197	10473.341797
8397.759847	0.089993	0.235197	10559.014648
8397.760789	0.090070	0.235197	10643.860352
8398.739444	1.114373	0.261381	519.297607
8398.740337	1.557312	0.261381	1909.977295
8398.741202	1.547787	0.261381	3248.812988
8398.742186	1.505761	0.261381	4730.481445
8398.743137	1.463394	0.261381	6122.168945
8398.744009	1.425894	0.261381	7365.547852
8398.744912	1.389481	0.261381	8620.249023
8398.745850	1.152528	0.261381	9701.320312
8398.746804	0.148792	0.261381	9843.267578
8398.747678	0.089824	0.261381	9921.774414
8398.748632	0.089901	0.261381	10007.540039
8398.749579	0.089883	0.261381	10092.659180
8398.750503	0.089919	0.261381	10175.745117
8398.751362	0.089952	0.261381	10253.014648
8398.752326	0.089971	0.261381	10339.746094
8398.753281	0.089993	0.261381	10425.689453
8398.754166	0.090018	0.261381	10505.355469
8398.755067	0.089974	0.261381	10586.422852
8399.773622	1.048451	0.220200	441.397858
8399.774594	1.554360	0.220200	1952.236084
8399.775494	1.546150	0.220200	3343.770996
8399.776412	1.505764	0.220200	4726.062500
8399.777281	1.466393	0.220200	6000.357910
8399.778265	1.424777	0.220200	7402.337891
8399.779174	1.387108	0.220200	8663.218750
8399.780100	1.156912	0.220200	9734.518555
8399.780983	0.166454	0.220200	9881.497070
8399.781963	0.089791	0.220200	9969.492187
8399.782913	0.089963	0.220200	10054.957031
8399.783805	0.089923	0.220200	10135.167969
8399.784711	0.089890	0.220200	10216.608398
8399.785666	0.089886	0.220200	10302.450195
8399.786597	0.089974	0.220200	10386.216797
8399.787464	0.089952	0.220200	10464.205078
8399.788419	0.089901	0.220200	10550.060547
8399.789372	0.089923	0.220200	10635.756836
8400.766394	1.050981	0.259609	445.616119
8400.767371	1.553760	0.259609	1963.639404
8400.768335	1.543195	0.259609	3451.279053
8400.769254	1.502439	0.259609	4832.020508
8400.770125	1.462800	0.259609	6106.119629
8400.771178	1.419862	0.259609	7601.234375
8400.772066	1.383567	0.259609	8829.841797
8400.772933	1.086376	0.259609	9771.729492
8400.773871	0.142603	0.259609	9905.490234
8400.774853	0.089828	0.259609	9993.701172
8400.775773	0.089875	0.259609	10076.386719
8400.776646	0.089952	0.259609	10154.915039
8400.777695	0.089927	0.259609	10249.248047
8400.778598	0.089952	0.259609	10330.474609
8400.779511	0.089890	0.259609	10412.543945
8400.780389	0.089963	0.259609	10491.532227
8400.781341	0.089916	0.259609	10577.131836
8400.782284	0.089894	0.259609	10661.901367
8401.799611	1.055603	0.215281	448.631287
8401.800589	1.553921	0.215281	1968.365967
8401.801548	1.543374	0.215281	3448.461670
8401.802469	1.502607	0.215281	4832.363281
8401.803338	1.463185	0.215281	6103.871094
8401.804368	1.421034	0.215281	7567.536133
8401.805247	1.384823	0.215281	8784.795898
8401.806114	1.128391	0.215281	9763.111328
8401.807035	0.155687	0.215281	9906.499023
8401.808034	0.089813	0.215281	9996.222656
8401.808964	0.089857	0.215281	10079.790039
8401.809842	0.090004	0.215281	10158.813477
8401.810836	0.089974	0.215281	10248.248047
8401.811753	0.089956	0.215281	10330.737305
8401.812673	0.089927	0.215281	10413.469727
8401.813540	0.089945	0.215281	10491.452148
8401.814576	0.089952	0.215281	10584.642578
8401.815458	0.090000	0.215281	10664.022461
8402.795462	1.071028	0.254441	464.826111
8402.796324	1.553163	0.254441	1803.652588
8402.797408	1.542755	0.254441	3475.999023
8402.798311	1.501945	0.254441	4832.254883
8402.799184	1.463119	0.254441	6109.557617
8402.800196	1.421642	0.254441	7548.259277
8402.801193	1.380601	0.254441	8924.717773
8402.802079	0.980197	0.254441	9793.171875
8402.802942	0.121077	0.254441	9897.661133
8402.804023	0.089905	0.254441	9994.848633
8402.804934	0.090000	0.254441	10076.838867
8402.805815	0.089916	0.254441	10156.054687
8402.806793	0.090055	0.254441	10244.127930
8402.807793	0.090015	0.254441	10334.142578
8402.808675	0.090004	0.254441	10413.525391
8402.809539	0.090059	0.254441	10491.335937
8402.810611	0.090040	0.254441	10587.859375
8402.811533	0.089985	0.254441	10670.826172
8403.826713	1.136931	0.209497	574.150269
8403.827702	1.562325	0.209497	2119.290039
8403.828591	1.542210	0.209497	3490.314453
8403.829574	1.498623	0.209497	4963.460937
8403.830632	1.451982	0.209497	6499.658203
8403.831542	1.413680	0.209497	7786.107422
8403.832401	1.377795	0.209497	8969.633789
8403.833499	0.672440	0.209497	9707.972656
8403.834491	0.091985	0.209497	9799.221680
8403.835370	0.089864	0.209497	9878.212891
8403.836362	0.089974	0.209497	9967.467773
8403.837407	0.089974	0.209497	10061.491211
8403.838284	0.089938	0.209497	10140.366211
8403.839155	0.090033	0.209497	10218.785156
8403.840249	0.089993	0.209497	10317.237305
8403.841213	0.089967	0.209497	10403.965820
8403.842089	0.090051	0.209497	10482.850586
8403.842970	0.089883	0.209497	10562.037109
8404.824514	1.059642	0.239439	455.646240
8404.825474	1.557521	0.239439	1950.866211
8404.826397	1.544520	0.239439	3376.458496
8404.827325	1.504299	0.239439	4772.448242
8404.828189	1.464445	0.239439	6037.728516
8404.829151	1.424656	0.239439	7408.247559
8404.830087	1.386467	0.239439	8705.980469
8404.830987	1.145665	0.239439	9737.079102
8404.831910	0.157482	0.239439	9882.434570
8404.832862	0.089725	0.239439	9967.853516
8404.833781	0.089861	0.239439	10050.435547
8404.834659	0.089996	0.239439	10129.452148
8404.835616	0.089890	0.239439	10215.476562
8404.836545	0.089949	0.239439	10299.039062
8404.837474	0.089963	0.239439	10382.615234
8404.838334	0.089963	0.239439	10459.983398
8404.839302	0.089963	0.239439	10547.068359
8404.840245	0.089930	0.239439	10631.873047
8405.855237	1.095963	0.195539	535.925964
8405.856150	1.559476	0.195539	1959.727783
8405.857037	1.545978	0.195539	3331.010254
8405.857928	1.506390	0.195539	4673.204102
8405.858885	1.463060	0.195539	6073.352539
8405.859842	1.423279	0.195539	7435.430664
8405.860743	1.387097	0.195539	8685.205078
8405.861656	1.113611	0.195539	9701.931641
8405.862629	0.139248	0.195539	9837.419922
8405.863549	0.089883	0.195539	9920.112305
8405.864416	0.089886	0.195539	9998.043945
8405.865382	0.090007	0.195539	10084.991211
8405.866288	0.089930	0.195539	10166.467773
8405.867185	0.089912	0.195539	10247.119141
8405.868056	0.089908	0.195539	10325.429687
8405.869008	0.089971	0.195539	10411.082031
8405.869954	0.089952	0.195539	10496.176758
8405.870840	0.090015	0.195539	10575.929687
8406.853046	1.049183	0.229816	440.657013
8406.853998	1.554965	0.229816	1920.983276
8406.854933	1.544982	0.229816	3365.541016
8406.855860	1.504468	0.229816	4760.182617
8406.856740	1.464291	0.229816	6048.758301
8406.857740	1.423594	0.229816	7472.352051
8406.858659	1.385134	0.229816	8745.290039
8406.859579	1.100101	0.229816	9757.382812
8406.860449	0.146389	0.229816	9884.741211
8406.861425	0.089821	0.229816	9972.406250
8406.862368	0.090029	0.229816	10057.303711
8406.863253	0.089993	0.229816	10136.947266
8406.864164	0.089927	0.229816	10218.870117
8406.865086	0.089945	0.229816	10301.799805
8406.866022	0.089993	0.229816	10386.033203
8406.866913	0.090000	0.229816	10466.223633
8406.867821	0.089956	0.229816	10547.903320
8406.868777	0.089875	0.229816	10633.824219
8407.882192	1.066465	0.203281	467.111572
8407.883053	1.554097	0.203281	1805.188843
8407.884021	1.546505	0.203281	3302.205811
8407.884918	1.506515	0.203281	4653.549805
8407.885839	1.465847	0.203281	6003.594727
8407.886705	1.428402	0.203281	7240.590820
8407.887706	1.388987	0.203281	8630.966797
8407.888642	1.162504	0.203281	9719.070312
8407.889521	0.166315	0.203281	9865.260742
8407.890430	0.089861	0.203281	9946.944336
8407.891386	0.089843	0.203281	10032.833984
8407.892315	0.089905	0.203281	10116.355469
8407.893172	0.089912	0.203281	10193.410156
8407.894081	0.089875	0.203281	10275.107422
8407.895031	0.089945	0.203281	10360.555664
8407.895946	0.090011	0.203281	10442.916016
8407.896816	0.089978	0.203281	10521.197266
8407.897790	0.089974	0.203281	10608.832031
8408.880589	1.080480	0.228313	477.572052
8408.881470	1.555364	0.228313	1847.847534
8408.882335	1.548501	0.228313	3187.300781
8408.883428	1.502252	0.228313	4829.262695
8408.884340	1.461431	0.228313	6162.087402
8408.885216	1.424773	0.228313	7410.188477
8408.886225	1.384812	0.228313	8807.463867
8408.887233	0.933966	0.228313	9748.901367
8408.888119	0.112621	0.228313	9848.683594
8408.888983	0.089821	0.228313	9926.288086
8408.889964	0.090022	0.228313	10014.599609
8408.890894	0.089886	0.228313	10098.194336
8408.891807	0.090018	0.228313	10180.380859
8408.892684	0.089982	0.228313	10259.294922
8408.893717	0.089923	0.228313	10352.185547
8408.894606	0.089905	0.228313	10432.111328
8408.895484	0.090026	0.228313	10511.154297
8408.896413	0.090044	0.228313	10594.804687
8409.911242	1.063890	0.192985	463.856201
8409.912104	1.553500	0.192985	1802.972900
8409.913170	1.543121	0.192985	3447.940186
8409.914093	1.501622	0.192985	4833.937500
8409.914976	1.462251	0.192985	6125.104980
8409.915925	1.422689	0.192985	7475.237305
8409.916962	1.380714	0.192985	8907.038086
8409.917866	0.972949	0.192985	9786.583984
8409.918732	0.119022	0.192985	9889.657227
8409.919797	0.089890	0.192985	9985.390625
8409.920755	0.089985	0.192985	10071.596680
8409.921668	0.089791	0.192985	10153.576172
8409.922529	0.089956	0.192985	10231.028320
8409.923561	0.089974	0.192985	10323.881836
8409.924441	0.089971	0.192985	10403.055664
8409.925311	0.090011	0.192985	10481.365234
8409.926232	0.089956	0.192985	10564.214844
8409.927233	0.089777	0.192985	10654.081055
8410.908677	1.093795	0.224575	546.897583
8410.909733	1.561483	0.224575	2195.823730
8410.910674	1.537430	0.224575	3642.545898
8410.911539	1.497689	0.224575	4938.046875
8410.912613	1.451129	0.224575	6496.559570
8410.913628	1.409088	0.224575	7926.784180
8410.914519	1.373481	0.224575	9150.556641
8410.915494	0.650299	0.224575	9784.598633
8410.916529	0.091523	0.224575	9879.325195
8410.917451	0.089905	0.224575	9962.217773
8410.918315	0.090018	0.224575	10039.993164
8410.919388	0.089982	0.224575	10136.543945
8410.920378	0.089897	0.224575	10225.541992
8410.921261	0.089978	0.224575	10304.992187
8410.922119	0.090015	0.224575	10382.224609
8410.923210	0.089897	0.224575	10480.302734
8410.924113	0.089963	0.224575	10561.540039
8410.924983	0.089989	0.224575	10639.830078
8411.938232	1.062631	0.192650	447.367493
8411.939313	1.559828	0.192650	2133.541504
8411.940312	1.537035	0.192650	3669.039551
8411.941193	1.497510	0.192650	4988.345703
8411.942210	1.453458	0.192650	6466.512695
8411.943260	1.409996	0.192650	7947.008789
8411.944146	1.373745	0.192650	9164.146484
8411.945026	0.726002	0.192650	9803.028320
8411.946118	0.092307	0.192650	9903.828125
8411.947086	0.089927	0.192650	9990.876953
8411.947959	0.089923	0.192650	10069.379883
8411.948972	0.089971	0.192650	10160.520508
8411.950015	0.089912	0.192650	10254.298828
8411.950908	0.089897	0.192650	10334.577148
8411.951828	0.089916	0.192650	10417.299805
8411.952895	0.089989	0.192650	10513.318359
8411.953836	0.090026	0.192650	10598.032227
8411.954704	0.090007	0.192650	10676.158203
8412.936641	1.058492	0.214379	453.034760
8412.937504	1.552808	0.214379	1793.107788
8412.938474	1.547241	0.214379	3293.931641
8412.939424	1.505742	0.214379	4724.386719
8412.940316	1.465155	0.214379	6031.304687
8412.941225	1.427490	0.214379	7328.893555
8412.942181	1.388591	0.214379	8656.386719
8412.943111	1.144259	0.214379	9720.547852
8412.943992	0.162561	0.214379	9863.763672
8412.944900	0.089773	0.214379	9945.277344
8412.945846	0.089868	0.214379	10030.292969
8412.946764	0.089835	0.214379	10112.761719
8412.947637	0.089923	0.214379	10191.264648
8412.948713	0.089934	0.214379	10288.034180
8412.949759	0.089945	0.214379	10382.117187
8412.950664	0.089912	0.214379	10463.487305
8412.951529	0.089864	0.214379	10541.219727
8412.952632	0.089934	0.214379	10640.416992
8413.965774	1.093883	0.188618	483.496307
8413.966698	1.557986	0.188618	1923.075317
8413.967569	1.547091	0.188618	3270.591553
8413.968550	1.504834	0.188618	4746.833984
8413.969506	1.462408	0.188618	6144.896484
8413.970397	1.424707	0.188618	7414.310547
8413.971311	1.388020	0.188618	8682.960937
8413.972285	1.094110	0.188618	9748.624023
8413.973217	0.136212	0.188618	9875.574219
8413.974080	0.089806	0.188618	9953.077148
8413.975118	0.089974	0.188618	10046.470703
8413.976166	0.089989	0.188618	10140.779297
8413.977078	0.089952	0.188618	10222.815430
8413.977940	0.089956	0.188618	10300.357422
8413.978971	0.089967	0.188618	10393.113281
8413.979976	0.089985	0.188618	10483.548828
8413.980865	0.089894	0.188618	10563.464844
8413.981831	0.090022	0.188618	10650.425781
8414.962639	1.085021	0.221018	475.239105
8414.963510	1.554379	0.221018	1829.103027
8414.964498	1.545004	0.221018	3355.566650
8414.965427	1.504292	0.221018	4753.053711
8414.966314	1.464598	0.221018	6052.152344
8414.967227	1.426498	0.221018	7354.544922
8414.968183	1.387863	0.221018	8681.341797
8414.969105	1.150594	0.221018	9742.189453
8414.969973	0.164824	0.221018	9885.256836
8414.970933	0.089813	0.221018	9971.477539
8414.971868	0.089952	0.221018	10055.583008
8414.972805	0.089960	0.221018	10139.875000
8414.973664	0.089930	0.221018	10217.125000
8414.974625	0.089905	0.221018	10303.523437
8414.975571	0.090121	0.221018	10388.777344
8414.976468	0.090011	0.221018	10469.517578
8414.977381	0.090007	0.221018	10551.694336
8414.978323	0.089901	0.221018	10636.380859
8415.994340	1.084966	0.186136	501.254211
8415.995231	1.556810	0.186136	1888.372070
8415.996109	1.548578	0.186136	3248.023437
8415.997030	1.508463	0.186136	4637.317871
8415.997995	1.465660	0.186136	6051.680176
8415.998920	1.426414	0.186136	7371.112793
8415.999779	1.390734	0.186136	8565.752930
8416.000734	1.158406	0.186136	9672.030273
8416.001689	0.154801	0.186136	9819.865234
8416.002614	0.089868	0.186136	9902.993164
8416.003478	0.089930	0.186136	9980.693359
8416.004441	0.089938	0.186136	10067.303711
8416.005390	0.090000	0.186136	10152.713867
8416.006283	0.089996	0.186136	10233.081055
8416.007189	0.089927	0.186136	10314.554687
8416.008152	0.089941	0.186136	10401.167969
8416.009078	0.090051	0.186136	10484.555664
8416.009942	0.089908	0.186136	10562.236328
8416.989114	1.051307	0.220131	443.651703
8416.990024	1.553467	0.220131	1857.306519
8416.990988	1.545835	0.220131	3347.491455
8416.991925	1.504768	0.220131	4757.458984
8416.992795	1.464943	0.220131	6031.958984
8416.993775	1.425077	0.220131	7428.534180
8416.994710	1.386295	0.220131	8724.719727
8416.995607	1.123213	0.220131	9732.242187
8416.996491	0.154010	0.220131	9868.386719
8416.997471	0.089817	0.220131	9956.407227
8416.998428	0.089996	0.220131	10042.534180
8416.999328	0.090011	0.220131	10123.543945
8417.000245	0.090018	0.220131	10206.090820
8417.001201	0.089952	0.220131	10292.084961
8417.002128	0.089967	0.220131	10375.484375
8417.002991	0.090004	0.220131	10453.157227
8417.003942	0.089923	0.220131	10538.673828
8417.004893	0.089875	0.220131	10624.145508
8418.022335	1.059181	0.176795	453.329468
8418.023199	1.553148	0.176795	1795.249512
8418.024183	1.546644	0.176795	3317.147461
8418.025143	1.504658	0.176795	4761.619141
8418.026031	1.464511	0.176795	6062.104492
8418.026948	1.426743	0.176795	7370.427734
8418.027901	1.388185	0.176795	8693.368164
8418.028816	1.135093	0.176795	9731.978516
8418.029693	0.159188	0.176795	9871.586914
8418.030610	0.089806	0.176795	9953.938477
8418.031570	0.089890	0.176795	10040.233398
8418.032490	0.090026	0.176795	10123.056641
8418.033362	0.090026	0.176795	10201.558594
8418.034334	0.089952	0.176795	10288.992187
8418.035270	0.089850	0.176795	10373.091797
8418.036174	0.090040	0.176795	10454.488281
8418.037040	0.089839	0.176795	10532.289062
8418.038007	0.090026	0.176795	10619.343750
8419.017731	1.136594	0.212474	551.248230
8419.018614	1.557836	0.212474	1926.817139
8419.019474	1.547128	0.212474	3257.346924
8419.020433	1.505416	0.212474	4701.041016
8419.021385	1.463313	0.212474	6094.115234
8419.022280	1.425648	0.212474	7370.070312
8419.023192	1.389042	0.212474	8636.875977
8419.024145	1.152612	0.212474	9735.315430
8419.025067	0.145444	0.212474	9869.415039
8419.025959	0.089864	0.212474	9949.574219
8419.026885	0.089883	0.212474	10032.805664
8419.027824	0.089883	0.212474	10117.206055
8419.028751	0.089985	0.212474	10200.622070
8419.029614	0.089912	0.212474	10278.215820
8419.030557	0.089897	0.212474	10362.989258
8419.031489	0.089821	0.212474	10446.702148
8419.032400	0.089949	0.212474	10528.645508
8419.033268	0.089897	0.212474	10606.676758
8420.049336	1.051728	0.176658	441.725952
8420.050257	1.553866	0.176658	1872.836548
8420.051219	1.545612	0.176658	3359.714844
8420.052145	1.504457	0.176658	4752.841797
8420.053014	1.465192	0.176658	6026.093262
8420.053990	1.425271	0.176658	7417.157715
8420.054909	1.386903	0.176658	8691.721680
8420.055832	1.137407	0.176658	9741.548828
8420.056697	0.159642	0.176658	9879.639648
8420.057653	0.089751	0.176658	9965.441406
8420.058605	0.089901	0.176658	10051.027344
8420.059498	0.089989	0.176658	10131.387695
8420.060415	0.089923	0.176658	10213.847656
8420.061372	0.089799	0.176658	10299.785156
8420.062276	0.089938	0.176658	10381.088867
8420.063170	0.089985	0.176658	10461.536133
8420.064095	0.090037	0.176658	10544.820312
8420.065049	0.089908	0.176658	10630.592773
8421.046196	1.058752	0.206423	443.617249
8421.047170	1.557894	0.206423	1961.006348
8421.048104	1.544253	0.206423	3403.338623
8421.048988	1.505255	0.206423	4733.984375
8421.049909	1.464020	0.206423	6082.346680
8421.050867	1.424227	0.206423	7446.756348
8421.051798	1.386383	0.206423	8737.478516
8421.052669	1.164170	0.206423	9751.470703
8421.053595	0.150450	0.206423	9890.788086
8421.054543	0.089817	0.206423	9975.934570
8421.055465	0.089905	0.206423	10058.827148
8421.056341	0.089883	0.206423	10137.564453
8421.057311	0.089938	0.206423	10224.803711
8421.058260	0.089949	0.206423	10310.165039
8421.059150	0.089974	0.206423	10390.242187
8421.060060	0.089883	0.206423	10472.035156
8421.060978	0.089949	0.206423	10554.608398
8421.061921	0.089927	0.206423	10639.409180
8422.077396	1.104910	0.169641	489.474976
8422.078336	1.559041	0.169641	1954.973145
8422.079219	1.546615	0.169641	3320.634033
8422.080140	1.505654	0.169641	4707.341797
8422.081105	1.463009	0.169641	6119.145508
8422.082030	1.424161	0.169641	7436.495117
8422.082895	1.388584	0.169641	8637.620117
8422.083857	1.137059	0.169641	9731.470703
8422.084787	0.146272	0.169641	9867.503906
8422.085692	0.089711	0.169641	9948.692383
8422.086578	0.089821	0.169641	10028.273437
8422.087521	0.089854	0.169641	10113.004883
8422.088476	0.089886	0.169641	10198.846680
8422.089363	0.089879	0.169641	10278.569336
8422.090273	0.089941	0.169641	10360.416016
8422.091224	0.089846	0.169641	10445.859375
8422.092156	0.089919	0.169641	10529.664062
8422.093022	0.089773	0.169641	10607.407227
8423.073249	1.109242	0.205823	505.814270
8423.074179	1.558773	0.205823	1955.473389
8423.075055	1.546725	0.205823	3310.404297
8423.075979	1.506032	0.205823	4701.977539
8423.076937	1.463580	0.205823	6104.087402
8423.077864	1.424696	0.205823	7424.780273
8423.078731	1.389031	0.205823	8629.070312
8423.079706	1.137803	0.205823	9738.427734
8423.080618	0.144910	0.205823	9870.584961
8423.081537	0.089729	0.205823	9953.045898
8423.082414	0.090059	0.205823	10032.027344
8423.083376	0.089934	0.205823	10118.543945
8423.084330	0.090000	0.205823	10204.404297
8423.085222	0.089956	0.205823	10284.645508
8423.086133	0.089971	0.205823	10366.608398
8423.087094	0.090007	0.205823	10453.105469
8423.088024	0.089894	0.205823	10536.707031
8423.088893	0.090011	0.205823	10614.926758
8424.102377	1.071753	0.174003	509.082642
8424.103322	1.559081	0.174003	1982.413940
8424.104262	1.542843	0.174003	3432.686523
8424.105155	1.503435	0.174003	4775.253906
8424.106094	1.461064	0.174003	6147.193359
8424.107039	1.421583	0.174003	7490.589844
8424.107970	1.384552	0.174003	8779.607422
8424.108833	1.092718	0.174003	9722.623047
8424.109808	0.135967	0.174003	9855.190430
8424.110748	0.089894	0.174003	9939.690430
8424.111636	0.089919	0.174003	10019.539062
8424.112548	0.089927	0.174003	10101.552734
8424.113489	0.089864	0.174003	10186.115234
8424.114421	0.089821	0.174003	10269.828125
8424.115309	0.089875	0.174003	10349.637695
8424.116228	0.089971	0.174003	10432.320312
8424.117191	0.089894	0.174003	10518.887695
8424.118114	0.090022	0.174003	10601.977539
8425.104320	1.056790	0.194471	450.192383
8425.105264	1.553243	0.194471	1916.454102
8425.106168	1.546047	0.194471	3314.081055
8425.107083	1.505885	0.194471	4691.965820
8425.107959	1.466858	0.194471	5976.933594
8425.108922	1.426604	0.194471	7350.753418
8425.109878	1.387749	0.194471	8677.441406
8425.110803	1.150298	0.194471	9741.466797
8425.111666	0.164528	0.194471	9883.454102
8425.112622	0.089843	0.194471	9969.343750
8425.113578	0.089908	0.194471	10055.295898
8425.114466	0.089930	0.194471	10135.154297
8425.115353	0.089886	0.194471	10214.883789
8425.116305	0.089916	0.194471	10300.483398
8425.117245	0.089901	0.194471	10384.990234
8425.118132	0.089963	0.194471	10464.788086
8425.119056	0.089901	0.194471	10547.856445
8425.120016	0.089890	0.194471	10634.151367
8426.126293	1.079238	0.187361	471.627136
8426.127169	1.554738	0.187361	1833.577148
8426.128032	1.549178	0.187361	3170.518066
8426.129038	1.506910	0.187361	4686.469727
8426.129964	1.465239	0.187361	6043.281250
8426.130832	1.427970	0.187361	7282.759277
8426.131712	1.391136	0.187361	8506.958984
8426.132697	1.163544	0.187361	9653.049805
8426.133653	0.158068	0.187361	9804.162109
8426.134540	0.089850	0.187361	9883.859375
8426.135456	0.089919	0.187361	9966.225586
8426.136410	0.089857	0.187361	10051.949219
8426.137304	0.089960	0.187361	10132.373047
8426.138254	0.089996	0.187361	10217.869141
8426.139213	0.089857	0.187361	10304.041992
8426.140129	0.089791	0.187361	10386.291016
8426.141011	0.089912	0.187361	10465.593750
8426.141917	0.089956	0.187361	10547.093750
8427.133374	1.060814	0.190358	455.089325
8427.134239	1.552760	0.190358	1798.226807
8427.135289	1.543846	0.190358	3419.265625
8427.136178	1.504222	0.190358	4756.519531
8427.137055	1.464770	0.190358	6041.123047
8427.138035	1.424465	0.190358	7437.099121
8427.139004	1.384702	0.190358	8778.875977
8427.139926	1.071581	0.190358	9766.873047
8427.140792	0.140358	0.190358	9888.422852
8427.141835	0.089850	0.190358	9982.136719
8427.142717	0.089938	0.190358	10061.461914
8427.143595	0.090007	0.190358	10140.488281
8427.144526	0.089934	0.190358	10224.216797
8427.145524	0.089886	0.190358	10313.923828
8427.146425	0.089978	0.190358	10394.994141
8427.147317	0.090018	0.190358	10475.290039
8427.148324	0.090004	0.190358	10565.923828
8427.149222	0.090004	0.190358	10646.747070
8428.153785	1.050304	0.181480	443.228271
8428.154779	1.554668	0.181480	1988.568237
8428.155698	1.543396	0.181480	3406.949219
8428.156615	1.503179	0.181480	4785.364258
8428.157491	1.463049	0.181480	6066.995605
8428.158528	1.420690	0.181480	7540.250977
8428.159422	1.384186	0.181480	8777.712891
8428.160302	1.115306	0.181480	9759.182617
8428.161265	0.147612	0.181480	9901.333008
8428.162218	0.089821	0.181480	9986.931641
8428.163138	0.089846	0.181480	10069.589844
8428.164002	0.089996	0.181480	10147.346680
8428.165035	0.089886	0.181480	10240.199219
8428.165910	0.089974	0.181480	10318.926758
8428.166775	0.089993	0.181480	10396.770508
8428.167652	0.090051	0.181480	10475.745117
8428.168687	0.089886	0.181480	10568.777344
8428.169580	0.089854	0.181480	10649.016602
8429.162434	1.052388	0.190205	449.369568
8429.163302	1.553236	0.190205	1797.578369
8429.164318	1.545059	0.190205	3367.357910
8429.165291	1.500751	0.190205	4827.588379
8429.166223	1.460065	0.190205	6188.368652
8429.167092	1.422206	0.190205	7424.265625
8429.168189	1.380304	0.190205	8938.458984
8429.169098	0.938046	0.190205	9791.142578
8429.169957	0.114661	0.190205	9889.635742
8429.170976	0.089919	0.190205	9981.263672
8429.171952	0.089956	0.190205	10069.060547
8429.172830	0.089978	0.190205	10148.061523
8429.173695	0.090018	0.190205	10225.927734
8429.174786	0.089982	0.190205	10324.097656
8429.175698	0.089894	0.190205	10406.081055
8429.176575	0.089901	0.190205	10484.924805
8429.177553	0.089978	0.190205	10572.922852
8429.178551	0.089941	0.190205	10662.684570
8430.177306	1.123209	0.190278	581.822388
8430.178335	1.562695	0.190278	2189.835937
8430.179229	1.539554	0.190278	3566.197754
8430.180097	1.499758	0.190278	4867.988281
8430.181173	1.453272	0.190278	6431.708496
8430.182103	1.414446	0.190278	7747.143066
8430.182980	1.379319	0.190278	8956.805664
8430.183955	0.829988	0.190278	9766.043945
8430.184969	0.096090	0.190278	9863.479492
8430.185855	0.089927	0.190278	9943.154297
8430.186712	0.089989	0.190278	10020.274414
8430.187749	0.089934	0.190278	10113.536133
8430.188695	0.090000	0.190278	10198.675781
8430.189570	0.089993	0.190278	10277.418945
8430.190500	0.090007	0.190278	10361.125977
8430.191545	0.089982	0.190278	10455.157227
8430.192438	0.089894	0.190278	10535.432617
8430.193306	0.089886	0.190278	10613.454102
8431.193019	1.073782	0.185520	456.357239
8431.194120	1.560447	0.185520	2174.409180
8431.195123	1.535610	0.185520	3714.626465
8431.196010	1.495741	0.185520	5041.348633
8431.197013	1.452107	0.185520	6497.811523
8431.198053	1.409451	0.185520	7963.640137
8431.198939	1.373291	0.185520	9180.375977
8431.199830	0.722933	0.185520	9824.509766
8431.200916	0.092487	0.185520	9924.950195
8431.201869	0.089949	0.185520	10010.670898
8431.202735	0.089945	0.185520	10088.563477
8431.203621	0.089952	0.185520	10168.261719
8431.204698	0.089897	0.185520	10265.081055
8431.205590	0.090059	0.185520	10345.413086
8431.206455	0.090015	0.185520	10423.275391
8431.207501	0.089967	0.185520	10517.380859
8431.208473	0.090110	0.185520	10604.967773
8431.209349	0.089974	0.185520	10683.785156
8432.203283	1.108861	0.193097	566.627991
8432.204334	1.561593	0.193097	2207.862305
8432.205266	1.537240	0.193097	3640.570068
8432.206129	1.497693	0.193097	4933.079102
8432.207190	1.451642	0.193097	6473.270996
8432.208210	1.409399	0.193097	7910.858398
8432.209102	1.373895	0.193097	9136.373047
8432.210100	0.638884	0.193097	9773.979492
8432.211143	0.091575	0.193097	9869.492187
8432.212045	0.089989	0.193097	9950.662109
8432.212902	0.089941	0.193097	10027.742187
8432.213987	0.089982	0.193097	10125.372070
8432.214976	0.089854	0.193097	10214.237305
8432.215860	0.090011	0.193097	10293.806641
8432.216864	0.090018	0.193097	10384.184570
8432.217911	0.090084	0.193097	10478.502930
8432.218788	0.090051	0.193097	10557.477539
8432.219649	0.089974	0.193097	10634.945312
8433.221578	1.080256	0.188050	469.911499
8433.222459	1.555034	0.188050	1839.896606
8433.223457	1.544348	0.188050	3381.156006
8433.224514	1.498224	0.188050	4964.778809
8433.225417	1.457530	0.188050	6280.928711
8433.226323	1.418804	0.188050	7566.364746
8433.227434	1.375195	0.188050	9094.207031
8433.228403	0.705634	0.188050	9777.965820
8433.229274	0.096291	0.188050	9861.835937
8433.230334	0.089985	0.188050	9957.220703
8433.231343	0.089930	0.188050	10047.960937
8433.232238	0.089952	0.188050	10128.468750
8433.233193	0.090040	0.188050	10214.457031
8433.234230	0.089916	0.188050	10307.699219
8433.235152	0.089945	0.188050	10390.628906
8433.236019	0.090059	0.188050	10468.709961
8433.237080	0.089916	0.188050	10564.110352
8433.238080	0.089934	0.188050	10654.044922
8434.229758	1.135426	0.195325	546.139954
8434.230690	1.559073	0.195325	1999.196289
8434.231560	1.545835	0.195325	3344.072754
8434.232476	1.504966	0.195325	4722.621582
8434.233428	1.462716	0.195325	6115.127441
8434.234362	1.423722	0.195325	7444.883789
8434.235245	1.387566	0.195325	8670.104492
8434.236214	1.111835	0.195325	9747.472656
8434.237154	0.134971	0.195325	9874.344727
8434.238058	0.089872	0.195325	9955.588867
8434.238917	0.089930	0.195325	10032.838867
8434.239884	0.090044	0.195325	10119.911133
8434.240839	0.089952	0.195325	10205.815430
8434.241711	0.090033	0.195325	10284.324219
8434.242620	0.089912	0.195325	10366.054687
8434.243566	0.089945	0.195325	10451.142578
8434.244492	0.089897	0.195325	10534.387695
8434.245372	0.090004	0.195325	10613.590820
8435.249120	1.111355	0.189279	509.000580
8435.250058	1.558678	0.189279	1971.040527
8435.250989	1.544132	0.189279	3408.627441
8435.251854	1.505002	0.189279	4710.454590
8435.252835	1.462200	0.189279	6144.872559
8435.253791	1.422550	0.189279	7504.830566
8435.254668	1.386357	0.189279	8720.666016
8435.255583	1.110831	0.189279	9737.076172
8435.256523	0.137457	0.189279	9866.286133
8435.257458	0.089751	0.189279	9950.203125
8435.258349	0.089956	0.189279	10030.353516
8435.259257	0.089919	0.189279	10112.000000
8435.260212	0.089963	0.189279	10197.915039
8435.261105	0.089996	0.189279	10278.282227
8435.262005	0.089982	0.189279	10359.265625
8435.262964	0.089846	0.189279	10445.427734
8435.263902	0.089751	0.189279	10529.614258
8435.264790	0.089949	0.189279	10609.488281
8436.256754	1.086958	0.197593	510.870270
8436.257641	1.556825	0.197593	1891.774048
8436.258553	1.546494	0.197593	3302.176758
8436.259494	1.504270	0.197593	4717.694824
8436.260416	1.463485	0.197593	6067.028320
8436.261282	1.426080	0.197593	7302.013672
8436.262252	1.387273	0.197593	8647.667969
8436.263210	1.114709	0.197593	9715.559570
8436.264104	0.145474	0.197593	9845.613281
8436.265017	0.089795	0.197593	9927.595703
8436.265981	0.089791	0.197593	10014.154297
8436.266913	0.089861	0.197593	10097.904297
8436.267785	0.090139	0.197593	10176.505859
8436.268739	0.089846	0.197593	10262.218750
8436.269645	0.089949	0.197593	10343.711914
8436.270567	0.089956	0.197593	10426.651367
8436.271450	0.089963	0.197593	10506.088867
8436.272412	0.089919	0.197593	10592.591797
8437.277630	1.051198	0.184465	445.707764
8437.278553	1.555638	0.184465	1881.562012
8437.279507	1.544674	0.184465	3355.181152
8437.280434	1.503999	0.184465	4749.388184
8437.281313	1.463979	0.184465	6036.226074
8437.282291	1.423546	0.184465	7428.454102
8437.283247	1.385175	0.184465	8752.680664
8437.284149	1.107975	0.184465	9752.074219
8437.285063	0.147931	0.184465	9887.283203
8437.286012	0.089769	0.184465	9972.474609
8437.286928	0.089850	0.184465	10054.777344
8437.287802	0.089971	0.184465	10133.412109
8437.288732	0.089919	0.184465	10217.037109
8437.289661	0.089949	0.184465	10300.599609
8437.290588	0.089934	0.184465	10383.968750
8437.291461	0.089963	0.184465	10462.506836
8437.292416	0.089890	0.184465	10548.351562
8437.293359	0.089960	0.184465	10633.183594
8438.282213	1.075734	0.204353	493.761749
8438.283108	1.556803	0.204353	1887.100342
8438.283975	1.548197	0.204353	3229.387207
8438.284912	1.506555	0.204353	4641.029297
8438.285859	1.464243	0.204353	6027.667480
8438.286794	1.425659	0.204353	7360.658691
8438.287657	1.389950	0.204353	8560.185547
8438.288628	1.170370	0.204353	9696.614258
8438.289586	0.158251	0.204353	9848.218750
8438.290453	0.089843	0.204353	9926.112305
8438.291327	0.089854	0.204353	10004.644531
8438.292294	0.089905	0.204353	10091.582031
8438.293243	0.089927	0.204353	10176.922852
8438.294134	0.089949	0.204353	10257.067383
8438.295038	0.089919	0.204353	10338.354492
8438.295998	0.089923	0.204353	10424.680664
8438.296922	0.089952	0.204353	10507.796875
8438.297785	0.089886	0.204353	10585.369141
8439.305186	1.088503	0.183208	506.154053
8439.306073	1.556928	0.183208	1887.148804
8439.306950	1.548234	0.183208	3244.949707
8439.307861	1.508657	0.183208	4619.336426
8439.308818	1.466023	0.183208	6022.320312
8439.309744	1.426787	0.183208	7343.525391
8439.310614	1.390953	0.183208	8553.655273
8439.311568	1.193529	0.183208	9692.282227
8439.312493	0.165066	0.183208	9844.967773
8439.313417	0.089755	0.183208	9927.901367
8439.314287	0.089938	0.183208	10006.147461
8439.315257	0.089897	0.183208	10093.347656
8439.316208	0.089927	0.183208	10178.868164
8439.317101	0.089963	0.183208	10259.205078
8439.318014	0.089791	0.183208	10341.184570
8439.318968	0.089905	0.183208	10426.954102
8439.319884	0.089879	0.183208	10509.283203
8439.320759	0.090110	0.183208	10588.128906
8440.310198	1.069512	0.202024	447.055908
8440.311177	1.558722	0.202024	1973.044678
8440.312107	1.543923	0.202024	3408.893311
8440.312990	1.505116	0.202024	4737.910645
8440.313913	1.464152	0.202024	6089.322754
8440.314866	1.424128	0.202024	7446.517090
8440.315793	1.386368	0.202024	8731.680664
8440.316673	1.164752	0.202024	9756.662109
8440.317600	0.168864	0.202024	9913.198242
8440.318517	0.089799	0.202024	9995.543945
8440.319429	0.089952	0.202024	10077.580078
8440.320307	0.089872	0.202024	10156.487305
8440.321277	0.089978	0.202024	10243.765625
8440.322216	0.089919	0.202024	10328.200195
8440.323113	0.090011	0.202024	10408.940430
8440.324020	0.089908	0.202024	10490.487305
8440.324989	0.089960	0.202024	10577.658203
8440.325911	0.089952	0.202024	10660.594727
8441.333182	1.060356	0.174305	451.711853
8441.334100	1.554353	0.174305	1878.607910
8441.335062	1.544919	0.174305	3364.820312
8441.335995	1.503809	0.174305	4767.874023
8441.336859	1.464760	0.174305	6033.426270
8441.337829	1.424744	0.174305	7415.427734
8441.338776	1.386526	0.174305	8728.467773
8441.339675	1.136045	0.174305	9749.772461
8441.340548	0.158452	0.174305	9888.101562
8441.341494	0.089843	0.174305	9973.092773
8441.342445	0.089879	0.174305	10058.567383
8441.343334	0.090000	0.174305	10138.577148
8441.344246	0.089938	0.174305	10220.600586
8441.345202	0.089916	0.174305	10306.560547
8441.346127	0.089894	0.174305	10389.711914
8441.347001	0.089949	0.174305	10468.327148
8441.347997	0.089850	0.174305	10557.817383
8441.348937	0.090018	0.174305	10642.434570
8442.337765	1.105082	0.195583	499.496979
8442.338644	1.555323	0.195583	1866.626343
8442.339506	1.549219	0.195583	3202.052979
8442.340546	1.503794	0.195583	4765.998535
8442.341477	1.462093	0.195583	6127.207520
8442.342382	1.423751	0.195583	7415.702148
8442.343262	1.387852	0.195583	8637.011719
8442.344219	1.122638	0.195583	9711.375977
8442.345190	0.137955	0.195583	9845.331055
8442.346082	0.089883	0.195583	9925.506836
8442.346992	0.089905	0.195583	10007.320312
8442.347912	0.089846	0.195583	10089.978516
8442.348857	0.090026	0.195583	10175.052734
8442.349751	0.089967	0.195583	10255.483398
8442.350680	0.089835	0.195583	10338.940430
8442.351636	0.089897	0.195583	10424.882812
8442.352558	0.089864	0.195583	10507.738281
8442.353423	0.089912	0.195583	10585.512695
8443.361215	1.057815	0.169459	449.571350
8443.362086	1.553393	0.169459	1802.577148
8443.362948	1.550241	0.169459	3138.884521
8443.363937	1.508306	0.169459	4630.598633
8443.364869	1.466254	0.169459	5997.146973
8443.365750	1.428790	0.169459	7255.911133
8443.366626	1.392008	0.169459	8475.310547
8443.367621	1.197502	0.169459	9666.825195
8443.368546	0.180275	0.169459	9833.579102
8443.369413	0.089821	0.169459	9911.453125
8443.370326	0.089890	0.169459	9993.522461
8443.371278	0.090004	0.169459	10079.206055
8443.372198	0.089875	0.169459	10161.891602
8443.373077	0.089938	0.169459	10240.947266
8443.373998	0.089886	0.169459	10323.732422
8443.374957	0.089919	0.169459	10409.964844
8443.375883	0.089952	0.169459	10493.260742
8443.376746	0.089879	0.169459	10570.826172
8444.365241	1.049740	0.194169	439.841034
8444.366159	1.552108	0.194169	1864.676270
8444.367148	1.544290	0.194169	3391.978516
8444.368059	1.503820	0.194169	4761.958008
8444.368940	1.464338	0.194169	6052.040039
8444.370002	1.420430	0.194169	7560.536133
8444.370912	1.383179	0.194169	8819.228516
8444.371787	1.083050	0.194169	9766.897461
8444.372654	0.142917	0.194169	9890.806641
8444.373709	0.089879	0.194169	9985.628906
8444.374596	0.089912	0.194169	10065.380859
8444.375463	0.089960	0.194169	10143.375977
8444.376461	0.089967	0.194169	10233.163086
8444.377373	0.090000	0.194169	10315.243164
8444.378283	0.089978	0.194169	10397.123047
8444.379158	0.089974	0.194169	10475.850586
8444.380181	0.089813	0.194169	10567.729492
8444.381079	0.089875	0.194169	10648.437500
8445.388731	1.052999	0.164089	446.471680
8445.389754	1.555964	0.164089	2038.223267
8445.390676	1.542301	0.164089	3460.224854
8445.391592	1.501879	0.164089	4835.945801
8445.392456	1.462031	0.164089	6099.140625
8445.393507	1.419536	0.164089	7591.073242
8445.394383	1.383431	0.164089	8802.958984
8445.395261	1.096282	0.164089	9765.494141
8445.396235	0.141603	0.164089	9903.415039
8445.397187	0.089784	0.164089	9988.889648
8445.398091	0.089974	0.164089	10070.226562
8445.398968	0.089960	0.164089	10149.121094
8445.400006	0.089868	0.164089	10242.404297
8445.400904	0.089978	0.164089	10323.204102
8445.401780	0.089974	0.164089	10402.021484
8445.402705	0.090000	0.164089	10485.271484
8445.403700	0.089751	0.164089	10574.573242
8445.404625	0.089945	0.164089	10657.772461
8446.392856	1.136711	0.190386	581.996216
8446.393788	1.560813	0.190386	2036.673828
8446.394663	1.544440	0.190386	3388.058594
8446.395619	1.502732	0.190386	4824.670410
8446.396645	1.456769	0.190386	6319.315430
8446.397531	1.419767	0.190386	7577.228516
8446.398396	1.384384	0.190386	8774.720703
8446.399461	0.912942	0.190386	9747.003906
8446.400405	0.105282	0.190386	9846.389648
8446.401271	0.089864	0.190386	9924.211914
8446.402206	0.089982	0.190386	10008.344727
8446.403261	0.089960	0.190386	10103.251953
8446.404155	0.089835	0.190386	10183.564453
8446.405024	0.089941	0.190386	10261.723633
8446.405946	0.090037	0.190386	10344.737305
8446.406936	0.089875	0.190386	10433.713867
8446.407847	0.089930	0.190386	10515.640625
8446.408734	0.090029	0.190386	10595.497070
8447.415381	1.190951	0.163179	690.751526
8447.416431	1.562662	0.163179	2331.547119
8447.417307	1.536647	0.163179	3677.649658
8447.418194	1.495437	0.163179	5004.102539
8447.419274	1.449020	0.163179	6569.043945
8447.420241	1.409264	0.163179	7931.802246
8447.421119	1.374184	0.163179	9138.335937
8447.422037	0.744474	0.163179	9821.762695
8447.423107	0.092585	0.163179	9920.829102
8447.423995	0.089864	0.163179	10000.628906
8447.424862	0.089945	0.163179	10078.611328
8447.425895	0.089949	0.163179	10171.528320
8447.426870	0.089923	0.163179	10259.203125
8447.427755	0.090015	0.163179	10338.866211
8447.428612	0.090033	0.163179	10416.024414
8447.429710	0.089974	0.163179	10514.816406
8447.430598	0.089843	0.163179	10594.596680
8447.431455	0.090000	0.163179	10671.726562
8448.420305	1.070955	0.185653	476.574768
8448.421167	1.553639	0.185653	1815.811523
8448.422234	1.542198	0.185653	3461.337402
8448.423242	1.497272	0.185653	4970.587402
8448.424123	1.457856	0.185653	6254.958984
8448.425102	1.417449	0.185653	7642.641602
8448.426158	1.375038	0.185653	9094.681641
8448.427071	0.770193	0.185653	9797.868164
8448.427934	0.099650	0.185653	9883.866211
8448.429023	0.089861	0.185653	9981.724609
8448.430003	0.089908	0.185653	10069.834961
8448.430902	0.089901	0.185653	10150.656250
8448.431883	0.090106	0.185653	10239.050781
8448.432929	0.089824	0.185653	10333.006836
8448.433826	0.089868	0.185653	10413.618164
8448.434689	0.089912	0.185653	10491.211914
8448.435784	0.090048	0.185653	10589.814453
8448.436751	0.089835	0.185653	10676.685547
8449.442831	1.125018	0.159050	570.384277
8449.443716	1.559249	0.159050	1950.319946
8449.444591	1.546630	0.159050	3303.620850
8449.445620	1.501509	0.159050	4848.673340
8449.446620	1.456494	0.159050	6305.167480
8449.447512	1.419408	0.159050	7571.279297
8449.448375	1.383080	0.159050	8764.876953
8449.449470	0.876464	0.159050	9724.604492
8449.450354	0.105758	0.159050	9818.094727
8449.451218	0.089821	0.159050	9895.699219
8449.452209	0.090029	0.159050	9984.917969
8449.453198	0.089963	0.159050	10073.891602
8449.454088	0.089985	0.159050	10153.978516
8449.454949	0.090007	0.159050	10231.474609
8449.456037	0.090004	0.159050	10329.398437
8449.456955	0.089938	0.159050	10411.960937
8449.457832	0.090125	0.159050	10491.000000
8449.458819	0.090007	0.159050	10579.836914
8450.449436	1.135074	0.174180	575.482788
8450.450316	1.558550	0.174180	1947.006714
8450.451183	1.547000	0.174180	3288.255371
8450.452239	1.500505	0.174180	4872.789062
8450.453203	1.457505	0.174180	6277.823730
8450.454080	1.420503	0.174180	7523.604492
8450.454953	1.383501	0.174180	8731.400391
8450.456083	0.839535	0.174180	9680.075195
8450.456988	0.100924	0.174180	9771.411133
8450.457852	0.089802	0.174180	9849.000000
8450.458877	0.090029	0.174180	9941.280273
8450.459842	0.089828	0.174180	10027.963867
8450.460774	0.090000	0.174180	10111.843750
8450.461637	0.089978	0.174180	10189.495117
8450.462723	0.089956	0.174180	10287.187500
8450.463608	0.089919	0.174180	10366.766602
8450.464480	0.089897	0.174180	10445.157227
8450.465490	0.089996	0.174180	10536.053711
8451.469345	1.138074	0.159284	584.969910
8451.470225	1.559084	0.159284	1956.964111
8451.471085	1.546791	0.159284	3287.204102
8451.472126	1.500685	0.159284	4849.416992
8451.473105	1.457406	0.159284	6276.217285
8451.473987	1.420422	0.159284	7529.029785
8451.474858	1.383534	0.159284	8734.087891
8451.475981	0.846303	0.159284	9684.485352
8451.476885	0.101429	0.159284	9776.177734
8451.477750	0.089923	0.159284	9853.960937
8451.478819	0.089974	0.159284	9950.143555
8451.479781	0.090007	0.159284	10036.730469
8451.480653	0.090015	0.159284	10115.223633
8451.481523	0.089956	0.159284	10193.485352
8451.482603	0.090011	0.159284	10290.697266
8451.483496	0.089963	0.159284	10371.034180
8451.484364	0.089945	0.159284	10449.106445
8451.485381	0.090062	0.159284	10540.700195
8452.477373	1.056332	0.172601	446.828369
8452.478425	1.558766	0.172601	2086.649902
8452.479443	1.537266	0.172601	3651.586426
8452.480330	1.497191	0.172601	4979.594727
8452.481197	1.458025	0.172601	6243.702148
8452.482273	1.414332	0.172601	7765.523437
8452.483202	1.376898	0.172601	9044.662109
8452.484079	0.887681	0.172601	9823.158203
8452.485034	0.107922	0.172601	9926.223633
8452.486056	0.089916	0.172601	10018.117187
8452.486953	0.089956	0.172601	10098.807617
8452.487819	0.090029	0.172601	10176.773437
8452.488864	0.089934	0.172601	10270.754883
8452.489800	0.089945	0.172601	10354.943359
8452.490677	0.089945	0.172601	10433.825195
8452.491612	0.089989	0.172601	10517.964844
8452.492668	0.090011	0.172601	10613.016602
8452.493553	0.090044	0.172601	10692.705078
8453.495814	1.114080	0.157411	551.469421
8453.496692	1.558444	0.157411	1919.782959
8453.497594	1.545040	0.157411	3313.409180
8453.498706	1.497008	0.157411	4978.082031
8453.499662	1.454747	0.157411	6368.820312
8453.500530	1.418320	0.157411	7599.922363
8453.501570	1.376733	0.157411	9031.724609
8453.502595	0.683968	0.157411	9732.791992
8453.503479	0.095453	0.157411	9817.171875
8453.504415	0.089901	0.157411	9901.319336
8453.505460	0.090018	0.157411	9995.388672
8453.506385	0.089864	0.157411	10078.513672
8453.507258	0.090011	0.157411	10157.093750
8453.508186	0.090018	0.157411	10240.630859
8453.509236	0.089974	0.157411	10335.103516
8453.510122	0.089941	0.157411	10414.791992
8453.510986	0.089875	0.157411	10492.444336
8453.512015	0.089916	0.157411	10584.967773
8454.506937	1.048656	0.165874	440.435577
8454.507926	1.554423	0.165874	1977.759521
8454.508982	1.538701	0.165874	3602.627930
8454.509886	1.497697	0.165874	4956.545410
8454.510752	1.457227	0.165874	6218.503906
8454.511869	1.412479	0.165874	7796.243164
8454.512844	1.374133	0.165874	9136.023437
8454.513713	0.794700	0.165874	9826.617187
8454.514746	0.095182	0.165874	9924.940430
8454.515784	0.090029	0.165874	10018.390625
8454.516676	0.089974	0.165874	10098.647461
8454.517601	0.090135	0.165874	10182.022461
8454.518652	0.089971	0.165874	10276.582031
8454.519598	0.090011	0.165874	10361.732422
8454.520462	0.089919	0.165874	10439.422852
8454.521517	0.089960	0.165874	10534.330078
8454.522522	0.089883	0.165874	10624.662109
8454.523403	0.089974	0.165874	10703.929687
8455.521283	1.105613	0.161741	535.116577
8455.522168	1.557711	0.161741	1913.690918
8455.523029	1.547461	0.161741	3246.054687
8455.523990	1.506090	0.161741	4693.407227
8455.524926	1.463075	0.161741	6062.845215
8455.525853	1.424696	0.161741	7383.538086
8455.526718	1.388734	0.161741	8584.792969
8455.527691	1.130845	0.161741	9685.104492
8455.528646	0.143251	0.161741	9821.909180
8455.529533	0.089850	0.161741	9901.606445
8455.530451	0.090103	0.161741	9984.320312
8455.531404	0.089875	0.161741	10069.971680
8455.532326	0.090018	0.161741	10152.968750
8455.533187	0.089919	0.161741	10230.389648
8455.534206	0.090000	0.161741	10322.099609
8455.535279	0.089982	0.161741	10418.650391
8455.536201	0.090051	0.161741	10501.677734
8455.537073	0.089938	0.161741	10580.103516
8456.535993	1.049788	0.162813	440.910767
8456.536917	1.554012	0.162813	1876.818237
8456.537880	1.544703	0.162813	3364.367676
8456.538820	1.503307	0.162813	4777.476074
8456.539700	1.463353	0.162813	6065.227051
8456.540679	1.422891	0.162813	7458.237305
8456.541633	1.384728	0.162813	8779.267578
8456.542525	1.098223	0.162813	9758.881836
8456.543445	0.146536	0.162813	9893.694336
8456.544393	0.089854	0.162813	9978.875000
8456.545333	0.089927	0.162813	10063.406250
8456.546215	0.089989	0.162813	10142.776367
8456.547126	0.089945	0.162813	10224.716797
8456.548064	0.090007	0.162813	10309.143555
8456.548984	0.090051	0.162813	10391.990234
8456.549858	0.089872	0.162813	10470.538086
8456.550824	0.089912	0.162813	10557.393555
8456.551758	0.089952	0.162813	10641.409180
8457.546703	1.092653	0.164347	477.489227
8457.547641	1.558279	0.164347	1939.154785
8457.548518	1.547025	0.164347	3295.895752
8457.549450	1.505786	0.164347	4699.288086
8457.550402	1.463463	0.164347	6092.504883
8457.551327	1.424751	0.164347	7410.399414
8457.552197	1.389067	0.164347	8618.887695
8457.553170	1.151620	0.164347	9739.414062
8457.554068	0.151033	0.164347	9875.041016
8457.554991	0.089824	0.164347	9957.949219
8457.555860	0.090059	0.164347	10036.209961
8457.556829	0.090007	0.164347	10123.426758
8457.557772	0.090062	0.164347	10208.355469
8457.558661	0.089963	0.164347	10288.333008
8457.559568	0.090088	0.164347	10370.042969
8457.560537	0.089883	0.164347	10457.139648
8457.561455	0.089974	0.164347	10539.736328
8457.562317	0.090084	0.164347	10617.388672
8458.565615	1.081893	0.164867	516.063110
8458.566572	1.559015	0.164867	2008.040405
8458.567509	1.542711	0.164867	3453.560791
8458.568375	1.503776	0.164867	4755.830566
8458.569306	1.461628	0.164867	6116.606445
8458.570265	1.421832	0.164867	7480.143555
8458.571194	1.384852	0.164867	8766.671875
8458.572054	1.095198	0.164867	9708.541992
8458.573017	0.136842	0.164867	9840.321289
8458.573971	0.089791	0.164867	9925.982422
8458.574858	0.090015	0.164867	10005.825195
8458.575765	0.090084	0.164867	10087.531250
8458.576702	0.089941	0.164867	10171.806641
8458.577629	0.090055	0.164867	10255.287109
8458.578522	0.090004	0.164867	10335.660156
8458.579448	0.090146	0.164867	10419.135742
8458.580399	0.089930	0.164867	10504.659180
8458.581326	0.090022	0.164867	10588.109375
8459.571130	1.049586	0.172899	442.925354
8459.572121	1.557367	0.172899	1986.276123
8459.572998	1.545033	0.172899	3341.270020
8459.573915	1.504786	0.172899	4721.159180
8459.574794	1.464778	0.172899	6008.698730
8459.575778	1.424326	0.172899	7410.235840
8459.576704	1.386819	0.172899	8694.429687
8459.577593	1.173523	0.172899	9737.691406
8459.578501	0.172332	0.172899	9894.167969
8459.579430	0.089864	0.172899	9977.652344
8459.580375	0.089967	0.172899	10062.670898
8459.581253	0.089996	0.172899	10141.687500
8459.582178	0.089894	0.172899	10224.838867
8459.583131	0.089967	0.172899	10310.577148
8459.584040	0.089993	0.172899	10392.380859
8459.584921	0.090029	0.172899	10471.696289
8459.585865	0.090048	0.172899	10556.701172
8459.586799	0.089989	0.172899	10640.750977
8460.593095	1.058496	0.174491	458.328827
8460.593961	1.553525	0.174491	1803.681763
8460.594852	1.548596	0.174491	3183.480957
8460.595817	1.506687	0.174491	4637.433594
8460.596747	1.465573	0.174491	6000.416016
8460.597619	1.428040	0.174491	7245.666504
8460.598665	1.386453	0.174491	8695.895508
8460.599563	1.132625	0.174491	9712.992187
8460.600491	0.147198	0.174491	9849.592773
8460.601355	0.089864	0.174491	9927.235352
8460.602353	0.089952	0.174491	10017.007812
8460.603280	0.089974	0.174491	10100.414062
8460.604155	0.089919	0.174491	10179.093750
8460.605064	0.089971	0.174491	10260.876953
8460.606001	0.090022	0.174491	10345.227539
8460.606938	0.089952	0.174491	10429.512695
8460.607829	0.089879	0.174491	10509.594727
8460.608734	0.089854	0.174491	10590.912109
8461.597111	1.046316	0.177041	440.498993
8461.598134	1.555382	0.177041	2031.654907
8461.599048	1.542418	0.177041	3441.425293
8461.599960	1.501875	0.177041	4811.135254
8461.600839	1.461936	0.177041	6096.176758
8461.601869	1.419602	0.177041	7558.366699
8461.602772	1.383098	0.177041	8807.304687
8461.603652	1.089111	0.177041	9765.722656
8461.604628	0.139387	0.177041	9901.764648
8461.605589	0.089879	0.177041	9988.138672
8461.606507	0.089993	0.177041	10070.751953
8461.607372	0.089901	0.177041	10148.516602
8461.608399	0.089989	0.177041	10240.935547
8461.609279	0.090037	0.177041	10320.167969
8461.610149	0.090004	0.177041	10398.470703
8461.611075	0.090007	0.177041	10481.817383
8461.612077	0.089952	0.177041	10571.949219
8461.612985	0.089974	0.177041	10653.645508
8462.621685	1.113036	0.171022	535.370300
8462.622574	1.557510	0.171022	1919.996582
8462.623446	1.547417	0.171022	3269.344238
8462.624391	1.505914	0.171022	4692.433105
8462.625385	1.461951	0.171022	6145.612305
8462.626311	1.423129	0.171022	7463.429687
8462.627176	1.387833	0.171022	8663.905273
8462.628225	1.027061	0.171022	9741.291992
8462.629098	0.128225	0.171022	9853.232422
8462.629968	0.089883	0.171022	9931.430664
8462.630830	0.089941	0.171022	10008.959961
8462.631894	0.090073	0.171022	10104.797852
8462.632781	0.089985	0.171022	10184.615234
8462.633657	0.089971	0.171022	10263.429687
8462.634637	0.089989	0.171022	10351.619141
8462.635573	0.090088	0.171022	10435.941406
8462.636494	0.089923	0.171022	10518.760742
8462.637360	0.089930	0.171022	10596.640625
8463.621151	1.139183	0.186269	580.983521
8463.622085	1.560516	0.186269	2038.505737
8463.622955	1.544154	0.186269	3381.919922
8463.623917	1.501721	0.186269	4826.575684
8463.624959	1.455564	0.186269	6343.273437
8463.625845	1.418265	0.186269	7599.856445
8463.626711	1.382827	0.186269	8797.384766
8463.627757	0.870168	0.186269	9707.581055
8463.628705	0.100723	0.186269	9803.066406
8463.629618	0.089788	0.186269	9885.042969
8463.630499	0.089930	0.186269	9964.271484
8463.631527	0.089993	0.186269	10056.784180
8463.632422	0.089901	0.186269	10137.246094
8463.633292	0.089952	0.186269	10215.504883
8463.634220	0.089919	0.186269	10298.950195
8463.635232	0.089799	0.186269	10389.826172
8463.636157	0.089875	0.186269	10472.960937
8463.637014	0.089886	0.186269	10549.993164
8464.651296	1.145966	0.163546	586.734375
8464.652196	1.559788	0.163546	1990.543091
8464.653066	1.545450	0.163546	3335.084961
8464.654089	1.500974	0.163546	4870.581543
8464.655093	1.455828	0.163546	6332.232422
8464.655975	1.418632	0.163546	7583.465820
8464.656842	1.382065	0.163546	8781.716797
8464.657956	0.807561	0.163546	9681.339844
8464.658859	0.099287	0.163546	9770.996094
8464.659731	0.089879	0.163546	9849.371094
8464.660589	0.089897	0.163546	9926.502930
8464.661637	0.089941	0.163546	10020.761719
8464.662526	0.089993	0.163546	10100.765625
8464.663403	0.090029	0.163546	10179.721680
8464.664401	0.090011	0.163546	10269.552734
8464.665359	0.089916	0.163546	10355.692383
8464.666244	0.089993	0.163546	10435.335937
8464.667209	0.089960	0.163546	10522.147461
8465.647631	1.138748	0.187063	579.622498
8465.648565	1.560454	0.187063	2037.086426
8465.649438	1.543740	0.187063	3384.771729
8465.650505	1.496536	0.187063	4981.575195
8465.651510	1.452371	0.187063	6441.207520
8465.652406	1.415237	0.187063	7709.259766
8465.653374	1.376902	0.187063	9042.100586
8465.654431	0.649717	0.187063	9728.851562
8465.655349	0.093047	0.187063	9814.268555
8465.656216	0.089919	0.187063	9892.228516
8465.657300	0.089960	0.187063	9989.745117
8465.658285	0.089978	0.187063	10078.373047
8465.659163	0.089901	0.187063	10157.306641
8465.660147	0.090011	0.187063	10245.877930
8465.661187	0.089894	0.187063	10339.367187
8465.662079	0.089978	0.187063	10419.627930
8465.662936	0.089930	0.187063	10496.698242
8465.664038	0.089956	0.187063	10595.830078
8466.678711	1.047744	0.163312	442.148041
8466.679608	1.552064	0.163312	1834.349609
8466.680696	1.540510	0.163312	3510.424805
8466.681665	1.497535	0.163312	4961.536621
8466.682531	1.458897	0.163312	6224.940918
8466.683582	1.415032	0.163312	7712.139160
8466.684614	1.374020	0.163312	9130.127930
8466.685515	0.752106	0.163312	9807.775391
8466.686468	0.098427	0.163312	9901.576172
8466.687510	0.089861	0.163312	9995.210937
8466.688442	0.089971	0.163312	10079.063477
8466.689300	0.089875	0.163312	10156.176758
8466.690350	0.090000	0.163312	10250.676758
8466.691368	0.090029	0.163312	10342.326172
8466.692243	0.089934	0.163312	10421.018555
8466.693216	0.089996	0.163312	10508.584961
8466.694262	0.089956	0.163312	10602.678711
8466.695171	0.089985	0.163312	10684.475586
8467.673623	1.135027	0.193851	572.053528
8467.674628	1.561860	0.193851	2141.723389
8467.675518	1.540668	0.193851	3512.917480
8467.676474	1.498217	0.193851	4945.212402
8467.677525	1.451495	0.193851	6470.733887
8467.678447	1.413153	0.193851	7773.661133
8467.679314	1.377356	0.193851	8967.829102
8467.680421	0.650145	0.193851	9687.540039
8467.681414	0.091553	0.193851	9778.452148
8467.682309	0.089872	0.193851	9858.887695
8467.683296	0.090007	0.193851	9947.724609
8467.684330	0.090022	0.193851	10040.807617
8467.685228	0.090033	0.193851	10121.657227
8467.686091	0.089916	0.193851	10199.254883
8467.687189	0.090040	0.193851	10298.119141
8467.688146	0.089945	0.193851	10384.196289
8467.689004	0.089982	0.193851	10461.400391
8467.690085	0.089978	0.193851	10558.666992
8468.706333	1.122440	0.157177	585.913818
8468.707385	1.561718	0.157177	2228.840820
8468.708300	1.537310	0.157177	3635.479004
8468.709164	1.497374	0.157177	4929.210449
8468.710249	1.450843	0.157177	6503.375488
8468.711249	1.409143	0.157177	7912.518555
8468.712132	1.373892	0.157177	9125.665039
8468.713130	0.652383	0.157177	9776.743164
8468.714164	0.091677	0.157177	9871.537109
8468.715067	0.089843	0.157177	9952.665039
8468.715926	0.089916	0.157177	10029.902344
8468.716989	0.089894	0.157177	10125.458984
8468.717982	0.089791	0.157177	10214.622070
8468.718873	0.089945	0.157177	10294.762695
8468.719861	0.089868	0.157177	10383.552734
8468.720905	0.089901	0.157177	10477.409180
8468.721805	0.089733	0.157177	10558.168945
8468.722667	0.089890	0.157177	10635.654297
8469.702075	1.058533	0.179905	445.642273
8469.703157	1.559656	0.179905	2133.189941
8469.704201	1.535288	0.179905	3736.030762
8469.705084	1.494543	0.179905	5055.712891
8469.705967	1.454465	0.179905	6340.005859
8469.707056	1.410710	0.179905	7876.269531
8469.708009	1.372723	0.179905	9184.474609
8469.708882	0.749659	0.179905	9838.927734
8469.709915	0.094464	0.179905	9936.508789
8469.710944	0.089766	0.179905	10028.877930
8469.711817	0.089945	0.179905	10107.400391
8469.712721	0.089894	0.179905	10188.664062
8469.713789	0.089919	0.179905	10284.698242
8469.714728	0.089879	0.179905	10369.094727
8469.715597	0.089835	0.179905	10447.161133
8469.716621	0.089938	0.179905	10539.257812
8469.717645	0.089784	0.179905	10631.196289
8469.718534	0.089868	0.179905	10711.088867
8470.733774	1.085555	0.153704	473.302155
8470.734655	1.555016	0.153704	1843.270996
8470.735570	1.546985	0.153704	3258.762207
8470.736533	1.505219	0.153704	4708.287598
8470.737458	1.464016	0.153704	6062.502441
8470.738323	1.427003	0.153704	7296.860352
8470.739286	1.388723	0.153704	8634.201172
8470.740235	1.152019	0.153704	9727.466797
8470.741128	0.160093	0.153704	9870.429687
8470.742037	0.089835	0.153704	9952.089844
8470.742972	0.089894	0.153704	10036.140625
8470.743891	0.089854	0.153704	10118.715820
8470.744782	0.089952	0.153704	10198.863281
8470.745689	0.089886	0.153704	10280.390625
8470.746646	0.089872	0.153704	10366.398437
8470.747563	0.089846	0.153704	10448.787109
8470.748439	0.089978	0.153704	10527.607422
8470.749492	0.090040	0.153704	10622.419922
8471.729144	1.099021	0.181456	519.836914
8471.730029	1.556565	0.181456	1897.396851
8471.730894	1.547703	0.181456	3236.159668
8471.731854	1.505914	0.181456	4681.837402
8471.732793	1.463221	0.181456	6055.802246
8471.733703	1.424912	0.181456	7352.472168
8471.734582	1.388727	0.181456	8573.163086
8471.735550	1.135873	0.181456	9672.687500
8471.736513	0.146331	0.181456	9813.603516
8471.737407	0.089791	0.181456	9893.876953
8471.738316	0.089945	0.181456	9975.636719
8471.739246	0.089839	0.181456	10059.186523
8471.740176	0.089846	0.181456	10142.743164
8471.741062	0.089864	0.181456	10222.363281
8471.741997	0.089949	0.181456	10306.465820
8471.742941	0.089905	0.181456	10391.335937
8471.743860	0.089923	0.181456	10473.975586
8471.744721	0.089923	0.181456	10551.399414
8472.760269	1.066263	0.152121	460.625763
8472.761131	1.552830	0.152121	1799.164917
8472.762121	1.545542	0.152121	3329.251465
8472.763049	1.504933	0.152121	4725.829102
8472.763924	1.465302	0.152121	6007.967773
8472.764846	1.427106	0.152121	7323.759277
8472.765789	1.388500	0.152121	8633.114258
8472.766719	1.155579	0.152121	9707.802734
8472.767608	0.165784	0.152121	9855.184570
8472.768530	0.089879	0.152121	9938.052734
8472.769486	0.089854	0.152121	10023.953125
8472.770417	0.089938	0.152121	10107.685547
8472.771285	0.089861	0.152121	10185.684570
8472.772253	0.089901	0.152121	10272.708984
8472.773199	0.089872	0.152121	10357.727539
8472.774087	0.089960	0.152121	10437.611328
8472.775022	0.090048	0.152121	10521.805664
8472.775948	0.089879	0.152121	10605.034180
8473.757671	1.126648	0.169254	530.651184
8473.758629	1.559216	0.169254	2024.380371
8473.759555	1.542502	0.169254	3452.737549
8473.760432	1.502867	0.169254	4770.751953
8473.761413	1.459944	0.169254	6202.957031
8473.762358	1.420576	0.169254	7545.401367
8473.763253	1.384332	0.169254	8784.378906
8473.764173	1.071010	0.169254	9769.708008
8473.765131	0.127339	0.169254	9891.698242
8473.766057	0.089897	0.169254	9974.943359
8473.766919	0.089945	0.169254	10052.475586
8473.767912	0.089927	0.169254	10141.772461
8473.768861	0.089938	0.169254	10227.123047
8473.769759	0.089967	0.169254	10307.913086
8473.770642	0.089897	0.169254	10387.292969
8473.771597	0.089963	0.169254	10473.208008
8473.772547	0.089978	0.169254	10558.687500
8473.773439	0.090026	0.169254	10638.990234
8474.787832	1.094326	0.147207	516.521973
8474.788718	1.557166	0.147207	1896.170654
8474.789597	1.547135	0.147207	3256.102295
8474.790518	1.507808	0.147207	4644.792969
8474.791452	1.464785	0.147207	6012.902344
8474.792392	1.425238	0.147207	7352.625977
8474.793284	1.389291	0.147207	8591.873047
8474.794215	1.160497	0.147207	9672.295898
8474.795177	0.158958	0.147207	9825.212891
8474.796103	0.089843	0.147207	9908.407227
8474.796964	0.089960	0.147207	9985.862305
8474.797909	0.090007	0.147207	10070.918945
8474.798833	0.089952	0.147207	10154.035156
8474.799754	0.089908	0.147207	10236.840820
8474.800615	0.089923	0.147207	10314.264648
8474.801582	0.089846	0.147207	10401.145508
8474.802536	0.089905	0.147207	10486.915039
8474.803426	0.090000	0.147207	10567.014648
8475.785152	1.058339	0.164585	454.027283
8475.786015	1.552284	0.164585	1793.648437
8475.787083	1.543000	0.164585	3441.572754
8475.787971	1.502834	0.164585	4776.089844
8475.788896	1.462086	0.164585	6128.519531
8475.789762	1.424912	0.164585	7362.493164
8475.790736	1.385797	0.164585	8712.259766
8475.791660	1.102354	0.164585	9730.833984
8475.792543	0.148008	0.164585	9861.524414
8475.793551	0.089835	0.164585	9952.078125
8475.794453	0.089927	0.164585	10033.192383
8475.795373	0.089846	0.164585	10115.850586
8475.796250	0.089934	0.164585	10194.722656
8475.797194	0.090004	0.164585	10279.686523
8475.798137	0.090000	0.164585	10364.556641
8475.799024	0.089821	0.164585	10444.227539
8475.799992	0.089978	0.164585	10531.326172
8475.800924	0.090051	0.164585	10615.253906
8476.813787	1.097186	0.145124	490.442230
8476.814674	1.555865	0.145124	1870.494873
8476.815553	1.548120	0.145124	3231.292480
8476.816543	1.505127	0.145124	4721.368164
8476.817496	1.461639	0.145124	6114.310547
8476.818421	1.423491	0.145124	7431.040039
8476.819287	1.387566	0.145124	8632.671875
8476.820327	1.046140	0.145124	9720.657227
8476.821222	0.129694	0.145124	9836.733398
8476.822098	0.089824	0.145124	9915.418945
8476.823072	0.089952	0.145124	10003.032227
8476.824024	0.089974	0.145124	10088.687500
8476.824942	0.089978	0.145124	10171.287109
8476.825801	0.089941	0.145124	10248.546875
8476.826818	0.089857	0.145124	10339.931641
8476.827713	0.089978	0.145124	10420.461914
8476.828588	0.089938	0.145124	10499.157227
8476.829485	0.089941	0.145124	10579.834961
8477.812759	1.137100	0.160601	571.961121
8477.813760	1.561443	0.160601	2134.965332
8477.814637	1.541257	0.160601	3486.647949
8477.815624	1.496927	0.160601	4964.115234
8477.816675	1.451100	0.160601	6489.221191
8477.817579	1.413091	0.160601	7766.655273
8477.818449	1.376605	0.160601	8964.301758
8477.819557	0.646194	0.160601	9680.284180
8477.820512	0.092428	0.160601	9768.552734
8477.821385	0.089927	0.160601	9847.058594
8477.822391	0.090029	0.160601	9937.627930
8477.823430	0.089813	0.160601	10030.944336
8477.824321	0.089993	0.160601	10111.127930
8477.825237	0.090007	0.160601	10193.574219
8477.826309	0.089912	0.160601	10289.959961
8477.827266	0.090121	0.160601	10376.206055
8477.828131	0.089813	0.160601	10453.894531
8477.829180	0.090015	0.160601	10548.320312
8478.842377	1.125905	0.141362	559.574585
8478.843401	1.561476	0.141362	2158.525879
8478.844307	1.539434	0.141362	3553.252686
8478.845264	1.497367	0.141362	4986.232910
8478.846315	1.450455	0.141362	6510.661621
8478.847254	1.411403	0.141362	7835.968750
8478.848122	1.376250	0.141362	9030.553711
8478.849190	0.641140	0.141362	9715.291016
8478.850196	0.091593	0.141362	9807.433594
8478.851072	0.089952	0.141362	9886.231445
8478.852060	0.089996	0.141362	9975.147461
8478.853097	0.090062	0.141362	10068.541992
8478.854002	0.090018	0.141362	10150.008789
8478.854867	0.090037	0.141362	10227.890625
8478.855856	0.090092	0.141362	10316.991211
8478.856871	0.089901	0.141362	10408.241211
8478.857766	0.090000	0.141362	10488.791016
8478.858633	0.089864	0.141362	10566.703125
8479.841209	1.047601	0.155900	442.087708
8479.842243	1.558224	0.155900	2053.291260
8479.843282	1.537123	0.155900	3650.361816
8479.844174	1.496620	0.155900	4985.346680
8479.845121	1.455359	0.155900	6363.571289
8479.846178	1.411040	0.155900	7855.040527
8479.847123	1.373525	0.155900	9153.021484
8479.847994	0.770098	0.155900	9823.776367
8479.849063	0.093838	0.155900	9924.088867
8479.850063	0.089945	0.155900	10014.034180
8479.850944	0.089861	0.155900	10093.201172
8479.851919	0.090029	0.155900	10180.979492
8479.852971	0.089923	0.155900	10275.578125
8479.853883	0.089945	0.155900	10357.608398
8479.854741	0.090040	0.155900	10434.863281
8479.855796	0.089949	0.155900	10529.758789
8479.856801	0.089696	0.155900	10619.903320
8479.857670	0.089960	0.155900	10698.078125
8480.868373	1.100131	0.139456	565.467163
8480.869434	1.561300	0.139456	2222.006348
8480.870374	1.535980	0.139456	3665.827637
8480.871243	1.495997	0.139456	4965.849121
8480.872327	1.448954	0.139456	6536.515137
8480.873335	1.407279	0.139456	7955.052246
8480.874232	1.371830	0.139456	9185.583984
8480.875215	0.602183	0.139456	9777.529297
8480.876255	0.091044	0.139456	9872.214844
8480.877158	0.089905	0.139456	9953.398437
8480.878018	0.090051	0.139456	10030.842773
8480.879099	0.089978	0.139456	10128.109375
8480.880077	0.089963	0.139456	10216.093750
8480.880954	0.090007	0.139456	10295.030273
8480.881946	0.090040	0.139456	10384.350586
8480.882982	0.089974	0.139456	10477.564453
8480.883868	0.090033	0.139456	10557.333984
8480.884736	0.090033	0.139456	10635.482422
8481.867239	1.070757	0.156343	500.043427
8481.868174	1.559011	0.156343	1957.718994
8481.869102	1.543638	0.156343	3390.214844
8481.869982	1.504644	0.156343	4714.301270
8481.870897	1.463313	0.156343	6053.232422
8481.871851	1.423700	0.156343	7411.442383
8481.872786	1.386218	0.156343	8707.556641
8481.873656	1.159153	0.156343	9716.019531
8481.874638	0.152410	0.156343	9865.685547
8481.875559	0.089835	0.156343	9948.423828
8481.876464	0.089927	0.156343	10029.807617
8481.877345	0.089901	0.156343	10109.010742
8481.878302	0.089993	0.156343	10195.133789
8481.879257	0.089835	0.156343	10280.926758
8481.880151	0.089952	0.156343	10361.343750
8481.881058	0.089835	0.156343	10442.824219
8481.882019	0.089894	0.156343	10529.211914
8481.882946	0.090015	0.156343	10612.655273
8482.896824	1.062165	0.135907	447.171661
8482.897808	1.557089	0.135907	1979.346802
8482.898757	1.543063	0.135907	3443.713379
8482.899632	1.503933	0.135907	4759.654785
8482.900546	1.462881	0.135907	6096.728027
8482.901503	1.422924	0.135907	7458.465820
8482.902427	1.385369	0.135907	8738.546875
8482.903305	1.151411	0.135907	9749.485352
8482.904246	0.146202	0.135907	9887.061523
8482.905181	0.089722	0.135907	9970.951172
8482.906107	0.089927	0.135907	10054.223633
8482.906969	0.089930	0.135907	10131.744141
8482.907939	0.089938	0.135907	10218.983398
8482.908893	0.089941	0.135907	10304.787109
8482.909776	0.089967	0.135907	10384.227539
8482.910686	0.089879	0.135907	10466.017578
8482.911616	0.090007	0.135907	10549.724609
8482.912559	0.089886	0.135907	10634.487305
8483.894242	1.095432	0.152415	507.185089
8483.895133	1.556532	0.152415	1894.054932
8483.895996	1.547395	0.152415	3229.456787
8483.896975	1.505435	0.152415	4703.277344
8483.897932	1.462954	0.152415	6103.324219
8483.898829	1.424960	0.152415	7381.513184
8483.899738	1.388665	0.152415	8643.809570
8483.900691	1.129369	0.152415	9720.097656
8483.901629	0.143580	0.152415	9854.776367
8483.902500	0.089839	0.152415	9933.026367
8483.903408	0.089912	0.152415	10014.666992
8483.904350	0.089982	0.152415	10099.429687
8483.905274	0.089996	0.152415	10182.585937
8483.906151	0.089934	0.152415	10261.458008
8483.907115	0.090000	0.152415	10348.217773
8483.908061	0.089927	0.152415	10433.288086
8483.908951	0.090077	0.152415	10513.456055
8483.909832	0.089967	0.152415	10592.716797
8484.924404	1.104767	0.136798	522.554687
8484.925292	1.557297	0.136798	1905.434692
8484.926159	1.546978	0.136798	3246.664062
8484.927142	1.504644	0.136798	4725.728516
8484.928103	1.462189	0.136798	6130.891602
8484.929001	1.423733	0.136798	7409.403809
8484.929892	1.387720	0.136798	8645.862305
8484.930846	1.098278	0.136798	9693.619141
8484.931806	0.138127	0.136798	9826.221680
8484.932682	0.089806	0.136798	9904.891602
8484.933604	0.089963	0.136798	9987.837891
8484.934534	0.089949	0.136798	10071.490234
8484.935464	0.089963	0.136798	10155.156250
8484.936345	0.089868	0.136798	10234.330078
8484.937284	0.089938	0.136798	10318.781250
8484.938204	0.089835	0.136798	10401.429687
8484.939136	0.089993	0.136798	10485.302734
8484.939997	0.089985	0.136798	10562.780273
8485.921753	1.097596	0.147122	487.332794
8485.922618	1.553932	0.147122	1831.483765
8485.923611	1.544359	0.147122	3365.032471
8485.924572	1.502270	0.147122	4808.714355
8485.925461	1.462229	0.147122	6108.635742
8485.926374	1.423978	0.147122	7408.728027
8485.927335	1.385266	0.147122	8739.968750
8485.928272	1.065813	0.147122	9738.635742
8485.929154	0.136974	0.147122	9859.446289
8485.930068	0.089769	0.147122	9941.495117
8485.931026	0.089861	0.147122	10027.582031
8485.931954	0.090044	0.147122	10111.142578
8485.932817	0.089960	0.147122	10188.777344
8485.933779	0.089854	0.147122	10275.216797
8485.934730	0.089886	0.147122	10360.699219
8485.935625	0.089993	0.147122	10441.242187
8485.936554	0.089916	0.147122	10524.774414
8485.937484	0.089945	0.147122	10608.422852
8486.951868	1.055548	0.139686	447.552368
8486.952789	1.552500	0.139686	1877.404907
8486.953733	1.545026	0.139686	3335.909180
8486.954661	1.504428	0.139686	4732.018066
8486.955542	1.464891	0.139686	6022.587402
8486.956464	1.425611	0.139686	7337.000977
8486.957412	1.387189	0.139686	8652.055664
8486.958336	1.148199	0.139686	9712.992187
8486.959217	0.163103	0.139686	9856.685547
8486.960180	0.089879	0.139686	9943.239258
8486.961127	0.089813	0.139686	10028.291992
8486.962014	0.089982	0.139686	10108.105469
8486.962878	0.090059	0.139686	10185.916016
8486.963840	0.089872	0.139686	10272.373047
8486.964768	0.089945	0.139686	10355.841797
8486.965630	0.089854	0.139686	10433.295898
8486.966604	0.089916	0.139686	10520.874023
8486.967543	0.089886	0.139686	10605.277344
8487.948221	1.051003	0.155143	444.574402
8487.949186	1.555276	0.155143	1945.415771
8487.950088	1.544912	0.155143	3338.926514
8487.951018	1.504435	0.155143	4738.050781
8487.951888	1.464631	0.155143	6012.280273
8487.952898	1.422997	0.155143	7449.506836
8487.953825	1.385654	0.155143	8734.008789
8487.954710	1.144504	0.155143	9746.895508
8487.955615	0.161400	0.155143	9892.962891
8487.956568	0.089795	0.155143	9978.537109
8487.957507	0.089897	0.155143	10062.951172
8487.958377	0.089938	0.155143	10141.197266
8487.959290	0.089879	0.155143	10223.256836
8487.960232	0.089802	0.155143	10307.850586
8487.961152	0.089890	0.155143	10390.549805
8487.962033	0.089963	0.155143	10469.807617
8487.963006	0.089824	0.155143	10557.207031
8487.963932	0.089813	0.155143	10640.374023
8488.979434	1.075408	0.138771	504.366241
8488.980323	1.556887	0.138771	1888.438843
8488.981192	1.547736	0.138771	3233.420898
8488.982215	1.503439	0.138771	4771.438477
8488.983127	1.462181	0.138771	6104.947754
8488.984004	1.425223	0.138771	7354.868652
8488.984865	1.388265	0.138771	8550.165039
8488.985936	1.069585	0.138771	9695.690430
8488.986823	0.136981	0.138771	9817.192383
8488.987694	0.089773	0.138771	9895.384766
8488.988711	0.090004	0.138771	9986.918945
8488.989624	0.089927	0.138771	10069.022461
8488.990519	0.089872	0.138771	10149.458008
8488.991408	0.089905	0.138771	10229.383789
8488.992350	0.089879	0.138771	10314.049805
8488.993299	0.089956	0.138771	10399.417969
8488.994186	0.089938	0.138771	10479.192383
8488.995098	0.089993	0.138771	10561.265625
8489.975785	1.106968	0.154297	503.670349
8489.976667	1.555737	0.154297	1875.830566
8489.977528	1.547227	0.154297	3207.992676
8489.978624	1.500970	0.154297	4853.056152
8489.979540	1.459790	0.154297	6190.223633
8489.980414	1.423092	0.154297	7434.005859
8489.981392	1.383713	0.154297	8787.277344
8489.982438	0.901293	0.154297	9730.029297
8489.983317	0.108153	0.154297	9825.095703
8489.984192	0.089821	0.154297	9903.688477
8489.985168	0.089850	0.154297	9991.381836
8489.986116	0.089963	0.154297	10076.666992
8489.987033	0.089919	0.154297	10159.123047
8489.987900	0.089912	0.154297	10237.077148
8489.988917	0.089894	0.154297	10328.499023
8489.989798	0.089850	0.154297	10407.657227
8489.990670	0.089934	0.154297	10486.080078
8489.991611	0.089912	0.154297	10570.687500
8491.005451	1.130464	0.146836	566.362366
8491.006333	1.558169	0.146836	1940.667236
8491.007200	1.546538	0.146836	3281.515625
8491.008230	1.501249	0.146836	4827.801758
8491.009195	1.458570	0.146836	6235.322266
8491.010078	1.421594	0.146836	7490.589844
8491.010988	1.384288	0.146836	8750.291992
8491.012085	0.879613	0.146836	9715.227539
8491.012977	0.104414	0.146836	9808.365234
8491.013837	0.089971	0.146836	9885.740234
8491.014869	0.089982	0.146836	9978.601562
8491.015834	0.089919	0.146836	10065.374023
8491.016708	0.090022	0.146836	10144.053711
8491.017565	0.090000	0.146836	10221.183594
8491.018678	0.089879	0.146836	10321.218750
8491.019558	0.089938	0.146836	10400.364258
8491.020424	0.089960	0.146836	10478.269531
8491.021481	0.090143	0.146836	10573.550781
8492.001824	1.141692	0.163864	583.404541
8492.002741	1.559952	0.163864	2013.880859
8492.003618	1.542909	0.163864	3367.011963
8492.004712	1.495906	0.163864	5003.532715
8492.005671	1.453121	0.163864	6397.076172
8492.006545	1.416984	0.163864	7635.520020
8492.007566	1.376671	0.163864	9041.101562
8492.008621	0.660121	0.163864	9737.529297
8492.009496	0.094175	0.163864	9819.932617
8492.010361	0.089868	0.163864	9897.668945
8492.011461	0.089934	0.163864	9996.596680
8492.012421	0.089956	0.163864	10082.954102
8492.013281	0.089883	0.163864	10160.252930
8492.014302	0.089993	0.163864	10252.135742
8492.015353	0.089872	0.163864	10346.590820
8492.016240	0.090055	0.163864	10426.469727
8492.017163	0.089956	0.163864	10509.499023
8492.018207	0.089919	0.163864	10603.375000
8493.032393	1.062839	0.146317	461.272308
8493.033260	1.553221	0.146317	1807.915283
8493.034291	1.543023	0.146317	3398.771484
8493.035326	1.497297	0.146317	4948.474121
8493.036218	1.457655	0.146317	6248.702148
8493.037175	1.418203	0.146317	7605.922363
8493.038230	1.375558	0.146317	9057.135742
8493.039175	0.762092	0.146317	9777.312500
8493.040040	0.099078	0.146317	9863.015625
8493.041113	0.089901	0.146317	9959.479492
8493.042120	0.089875	0.146317	10049.984375
8493.043010	0.090026	0.146317	10130.107422
8493.043978	0.089971	0.146317	10217.199219
8493.045021	0.089956	0.146317	10311.023437
8493.045924	0.089945	0.146317	10392.244141
8493.046780	0.089923	0.146317	10469.218750
8493.047856	0.089974	0.146317	10566.031250
8493.048844	0.089879	0.146317	10654.832031
8494.031303	1.072471	0.159969	462.234863
8494.032181	1.553936	0.159969	1826.590210
8494.033094	1.547296	0.159969	3239.271484
8494.034055	1.505424	0.159969	4685.983398
8494.034984	1.464159	0.159969	6046.187012
8494.035852	1.427069	0.159969	7284.882812
8494.036830	1.387910	0.159969	8642.258789
8494.037801	1.120909	0.159969	9730.662109
8494.038705	0.147532	0.159969	9864.031250
8494.039617	0.089854	0.159969	9945.977539
8494.040538	0.089861	0.159969	10028.739258
8494.041454	0.089908	0.159969	10111.095703
8494.042347	0.089974	0.159969	10191.442383
8494.043255	0.089795	0.159969	10272.976562
8494.044205	0.089817	0.159969	10358.302734
8494.045125	0.089945	0.159969	10441.051758
8494.045998	0.089872	0.159969	10519.509766
8494.046960	0.089875	0.159969	10605.969727
8495.058371	1.065209	0.145773	455.909302
8495.059234	1.552280	0.145773	1795.527222
8495.060219	1.545242	0.145773	3317.590332
8495.061148	1.504548	0.145773	4715.315430
8495.062035	1.464844	0.145773	6014.631836
8495.062947	1.426670	0.145773	7315.754883
8495.063907	1.387943	0.145773	8648.180664
8495.064841	1.160845	0.145773	9732.409180
8495.065712	0.168197	0.145773	9878.909180
8495.066683	0.089824	0.145773	9966.128906
8495.067604	0.089894	0.145773	10048.920898
8495.068472	0.090040	0.145773	10127.076172
8495.069460	0.089971	0.145773	10215.966797
8495.070405	0.089700	0.145773	10300.733398
8495.071329	0.089963	0.145773	10383.859375
8495.072195	0.089971	0.145773	10461.774414
8495.073156	0.089908	0.145773	10548.176758
8495.074111	0.089901	0.145773	10634.032227
8496.060376	1.070292	0.152862	473.068970
8496.061239	1.553987	0.152862	1814.159546
8496.062154	1.546710	0.152862	3229.399414
8496.063112	1.505303	0.152862	4671.479492
8496.064034	1.464445	0.152862	6021.697266
8496.064910	1.426868	0.152862	7271.633301
8496.065890	1.387943	0.152862	8631.817383
8496.066847	1.135129	0.152862	9718.135742
8496.067740	0.150480	0.152862	9852.513672
8496.068653	0.089817	0.152862	9934.516602
8496.069582	0.089890	0.152862	10018.024414
8496.070517	0.090015	0.152862	10102.188477
8496.071390	0.089930	0.152862	10180.697266
8496.072300	0.089886	0.152862	10262.494141
8496.073255	0.089960	0.152862	10348.405273
8496.074180	0.089901	0.152862	10431.563477
8496.075052	0.089945	0.152862	10509.995117
8496.076016	0.090004	0.152862	10596.758789
8497.083841	1.060891	0.143795	456.183197
8497.084709	1.552951	0.143795	1804.144287
8497.085698	1.545549	0.143795	3332.692383
8497.086639	1.504215	0.143795	4748.158691
8497.087534	1.463807	0.143795	6058.266113
8497.088456	1.425773	0.143795	7372.828613
8497.089381	1.386973	0.143795	8655.778320
8497.090321	1.114940	0.143795	9703.822266
8497.091214	0.152787	0.143795	9840.260742
8497.092127	0.089861	0.143795	9922.303711
8497.093082	0.089927	0.143795	10008.183594
8497.093999	0.090004	0.143795	10090.716797
8497.094874	0.089930	0.143795	10169.406250
8497.095827	0.090055	0.143795	10255.228516
8497.096751	0.089908	0.143795	10338.303711
8497.097675	0.090077	0.143795	10421.535156
8497.098534	0.089872	0.143795	10498.735352
8497.099501	0.089861	0.143795	10585.630859
8498.088900	1.055090	0.149277	454.743927
8498.089774	1.553185	0.149277	1812.227417
8498.090636	1.550116	0.149277	3148.427246
8498.091618	1.507310	0.149277	4628.605469
8498.092551	1.465287	0.149277	5995.718262
8498.093476	1.426714	0.149277	7315.428711
8498.094340	1.390924	0.149277	8517.187500
8498.095313	1.196550	0.149277	9681.430664
8498.096282	0.168699	0.149277	9844.899414
8498.097151	0.089828	0.149277	9922.959961
8498.098020	0.089963	0.149277	10001.137695
8498.098975	0.089905	0.149277	10086.997070
8498.099927	0.089934	0.149277	10172.614258
8498.100818	0.089971	0.149277	10252.778320
8498.101724	0.089795	0.149277	10334.132812
8498.102679	0.089875	0.149277	10419.963867
8498.103606	0.090007	0.149277	10503.400391
8498.104470	0.089938	0.149277	10581.106445
8499.107832	1.080227	0.149430	524.990356
8499.108744	1.558857	0.149430	1946.668335
8499.109673	1.543465	0.149430	3380.547852
8499.110553	1.504691	0.149430	4704.676270
8499.111509	1.462174	0.149430	6102.514648
8499.112459	1.422660	0.149430	7454.041504
8499.113350	1.386423	0.149430	8689.344727
8499.114299	1.041112	0.149430	9677.360352
8499.115241	0.127416	0.149430	9797.385742
8499.116153	0.089795	0.149430	9879.278320
8499.117037	0.090011	0.149430	9958.847656
8499.117978	0.089941	0.149430	10043.482422
8499.118923	0.089956	0.149430	10128.491211
8499.119845	0.089890	0.149430	10211.370117
8499.120725	0.089967	0.149430	10290.541016
8499.121680	0.089864	0.149430	10376.361328
8499.122616	0.089930	0.149430	10460.536133
8499.123544	0.089989	0.149430	10544.045898
8500.118000	1.113816	0.149048	521.265869
8500.118885	1.556653	0.149048	1898.903564
8500.119763	1.547223	0.149048	3257.365234
8500.120731	1.505409	0.149048	4714.601074
8500.121690	1.461973	0.149048	6116.632812
8500.122623	1.423114	0.149048	7444.397949
8500.123487	1.387734	0.149048	8643.400391
8500.124528	1.045265	0.149048	9731.521484
8500.125423	0.130313	0.149048	9848.151367
8500.126298	0.089850	0.149048	9926.769531
8500.127216	0.089971	0.149048	10009.362305
8500.128222	0.089883	0.149048	10099.784180
8500.129115	0.089960	0.149048	10180.118164
8500.129998	0.090022	0.149048	10259.607422
8500.130993	0.089993	0.149048	10349.150391
8500.131905	0.089923	0.149048	10431.160156
8500.132820	0.089864	0.149048	10513.385742
8500.133684	0.090018	0.149048	10591.161133
8501.134797	1.081769	0.143988	475.978302
8501.135672	1.554313	0.143988	1836.001831
8501.136535	1.547589	0.143988	3171.571289
8501.137643	1.501813	0.143988	4835.579590
8501.138557	1.460490	0.143988	6170.466797
8501.139432	1.423575	0.143988	7416.095215
8501.140296	1.386954	0.143988	8614.423828
8501.141351	1.037076	0.143988	9708.539062
8501.142240	0.129968	0.143988	9824.081055
8501.143106	0.089747	0.143988	9901.801758
8501.144089	0.089967	0.143988	9990.239258
8501.145009	0.089879	0.143988	10072.927734
8501.145919	0.089974	0.143988	10154.804687
8501.146799	0.089960	0.143988	10233.968750
8501.147835	0.089938	0.143988	10327.144531
8501.148731	0.090033	0.143988	10407.814453
8501.149606	0.089927	0.143988	10486.500000
8501.150525	0.090117	0.143988	10569.317383
8502.147104	1.140582	0.141942	582.837524
8502.148064	1.560886	0.141942	2081.288330
8502.148933	1.542729	0.141942	3421.920410
8502.149801	1.501787	0.141942	4725.471680
8502.150935	1.454407	0.141942	6374.769043
8502.151836	1.416533	0.141942	7651.065430
8502.152703	1.381487	0.141942	8848.814453
8502.153722	0.855802	0.141942	9720.876953
8502.154692	0.098031	0.141942	9815.966797
8502.155570	0.089810	0.141942	9894.819336
8502.156434	0.089974	0.141942	9972.557617
8502.157533	0.089978	0.141942	10071.443359
8502.158422	0.090000	0.141942	10151.453125
8502.159289	0.089938	0.141942	10229.428711
8502.160298	0.090044	0.141942	10320.283203
8502.161286	0.090018	0.141942	10409.221680
8502.162171	0.089934	0.141942	10488.813477
8502.163030	0.089993	0.141942	10566.117187
8503.159878	1.185934	0.144455	660.565125
8503.160924	1.562139	0.144455	2294.562256
8503.161814	1.536339	0.144455	3661.904053
8503.162757	1.494188	0.144455	5070.923340
8503.163828	1.447119	0.144455	6620.788086
8503.164769	1.408125	0.144455	7945.833496
8503.165646	1.373013	0.144455	9149.965820
8503.166692	0.565389	0.144455	9741.363281
8503.167706	0.090784	0.144455	9833.417969
8503.168599	0.089890	0.144455	9913.689453
8503.169547	0.089949	0.144455	9998.960937
8503.170597	0.089923	0.144455	10093.379883
8503.171522	0.089930	0.144455	10176.565430
8503.172384	0.089949	0.144455	10254.101562
8503.173440	0.090077	0.144455	10349.222656
8503.174429	0.089956	0.144455	10438.189453
8503.175311	0.089982	0.144455	10517.553711
8503.176299	0.089938	0.144455	10606.412109
8504.175540	1.051058	0.144431	440.393433
8504.176606	1.559084	0.144431	2102.377441
8504.177624	1.536233	0.144431	3666.262451
8504.178521	1.495734	0.144431	5007.935547
8504.179491	1.453759	0.144431	6418.081543
8504.180540	1.409839	0.144431	7897.002441
8504.181471	1.372742	0.144431	9175.025391
8504.182345	0.734985	0.144431	9817.402344
8504.183427	0.092531	0.144431	9917.520508
8504.184400	0.089868	0.144431	10004.961914
8504.185286	0.089886	0.144431	10084.601562
8504.186278	0.089919	0.144431	10173.801758
8504.187313	0.089945	0.144431	10266.894531
8504.188206	0.089901	0.144431	10347.175781
8504.189065	0.089963	0.144431	10424.454102
8504.190147	0.089919	0.144431	10521.747070
8504.191134	0.089810	0.144431	10610.388672
8504.192008	0.089879	0.144431	10688.943359
8505.186829	1.131676	0.148399	563.574646
8505.187773	1.560190	0.148399	2036.394287
8505.188649	1.543729	0.148399	3388.701172
8505.189675	1.497411	0.148399	4925.044922
8505.190728	1.451763	0.148399	6453.750977
8505.191624	1.414365	0.148399	7721.022461
8505.192558	1.376909	0.148399	9007.055664
8505.193639	0.642081	0.148399	9701.145508
8505.194572	0.092596	0.148399	9787.538086
8505.195444	0.089810	0.148399	9865.851562
8505.196490	0.089960	0.148399	9959.949219
8505.197492	0.089963	0.148399	10050.092773
8505.198381	0.089938	0.148399	10130.047852
8505.199338	0.089960	0.148399	10216.139648
8505.200369	0.089960	0.148399	10308.887695
8505.201293	0.089901	0.148399	10391.956055
8505.202157	0.089941	0.148399	10469.665039
8505.203228	0.089949	0.148399	10566.000000
8506.203597	1.085530	0.146695	480.889709
8506.204473	1.554573	0.146695	1842.695557
8506.205398	1.546468	0.146695	3273.178955
8506.206362	1.504508	0.146695	4723.524414
8506.207295	1.462866	0.146695	6088.378418
8506.208162	1.425846	0.146695	7324.586914
8506.209131	1.387463	0.146695	8669.039062
8506.210083	1.123187	0.146695	9738.313477
8506.210982	0.151373	0.146695	9874.398437
8506.211914	0.089839	0.146695	9958.127930
8506.212831	0.089971	0.146695	10040.630859
8506.213759	0.089857	0.146695	10124.018555
8506.214650	0.089967	0.146695	10204.178711
8506.215635	0.090044	0.146695	10292.872070
8506.216691	0.090029	0.146695	10387.943359
8506.217659	0.090018	0.146695	10475.081055
8506.218527	0.089952	0.146695	10553.160156
8506.219559	0.089960	0.146695	10645.999023
8507.212252	1.101885	0.150450	502.459442
8507.213145	1.556082	0.150450	1892.040283
8507.214013	1.546893	0.150450	3234.743652
8507.214989	1.505035	0.150450	4703.658203
8507.215937	1.463060	0.150450	6090.639160
8507.216834	1.425245	0.150450	7369.083984
8507.217764	1.388547	0.150450	8660.432617
8507.218694	1.131936	0.150450	9713.132812
8507.219639	0.144470	0.150450	9849.657227
8507.220516	0.089817	0.150450	9928.426758
8507.221453	0.089733	0.150450	10012.505859
8507.222407	0.089861	0.150450	10098.233398
8507.223330	0.089978	0.150450	10181.283203
8507.224190	0.089832	0.150450	10258.538086
8507.225157	0.089879	0.150450	10345.451172
8507.226106	0.090125	0.150450	10430.979492
8507.227001	0.089963	0.150450	10511.497070
8507.227914	0.089974	0.150450	10593.643555
8508.231635	1.076777	0.142421	471.628479
8508.232552	1.556851	0.142421	1899.260498
8508.233436	1.546846	0.142421	3266.672119
8508.234352	1.506262	0.142421	4646.408203
8508.235316	1.463269	0.142421	6056.999512
8508.236242	1.424586	0.142421	7376.166016
8508.237109	1.389005	0.142421	8580.433594
8508.238081	1.159398	0.142421	9707.369141
8508.239032	0.153142	0.142421	9853.006836
8508.239918	0.089832	0.142421	9932.597656
8508.240813	0.089883	0.142421	10013.042969
8508.241736	0.089883	0.142421	10096.004883
8508.242686	0.089832	0.142421	10181.344727
8508.243579	0.089897	0.142421	10261.623047
8508.244492	0.089996	0.142421	10343.790039
8508.245446	0.090011	0.142421	10429.660156
8508.246366	0.089912	0.142421	10512.378906
8508.247240	0.090007	0.142421	10591.044922
8509.238758	1.070709	0.152963	494.667664
8509.239646	1.555521	0.152963	1875.970459
8509.240533	1.546476	0.152963	3247.694336
8509.241488	1.504087	0.152963	4684.097168
8509.242438	1.462529	0.152963	6073.500000
8509.243335	1.424967	0.152963	7351.695312
8509.244254	1.387661	0.152963	8626.956055
8509.245216	1.119657	0.152963	9704.066406
8509.246146	0.139955	0.152963	9834.224609
8509.247014	0.089832	0.152963	9912.198242
8509.247984	0.089923	0.152963	9999.423828
8509.248933	0.089850	0.152963	10084.691406
8509.249821	0.089916	0.152963	10164.536133
8509.250698	0.089897	0.152963	10243.375977
8509.251643	0.089905	0.152963	10328.335937
8509.252569	0.089945	0.152963	10411.625000
8509.253450	0.089821	0.152963	10490.756836
8509.254418	0.089868	0.152963	10577.749023
8510.258629	1.054973	0.142252	452.583466
8510.259491	1.552434	0.142252	1790.781738
8510.260458	1.545564	0.142252	3285.342041
8510.261388	1.504651	0.142252	4684.667480
8510.262314	1.463888	0.142252	6040.227539
8510.263182	1.426069	0.142252	7278.055664
8510.264184	1.386984	0.142252	8667.813477
8510.265111	1.135950	0.142252	9720.838867
8510.266001	0.154288	0.142252	9858.155273
8510.266918	0.089912	0.142252	9940.604492
8510.267873	0.090004	0.142252	10026.557617
8510.268801	0.089875	0.142252	10109.961914
8510.269662	0.090011	0.142252	10187.460937
8510.270617	0.090048	0.142252	10273.456055
8510.271570	0.089993	0.142252	10359.218750
8510.272492	0.089938	0.142252	10442.141602
8510.273367	0.089912	0.142252	10520.814453
8510.274335	0.090029	0.142252	10607.962891
8511.264730	1.088793	0.156432	484.512756
8511.265618	1.555082	0.156432	1865.425537
8511.266479	1.547245	0.156432	3197.603516
8511.267458	1.505314	0.156432	4671.305664
8511.268385	1.464034	0.156432	6028.465820
8511.269274	1.426937	0.156432	7297.013184
8511.270193	1.389855	0.156432	8574.290039
8511.271167	1.170604	0.156432	9714.458984
8511.272088	0.157042	0.156432	9859.094727
8511.272962	0.089835	0.156432	9937.610352
8511.273954	0.089905	0.156432	10026.795898
8511.274882	0.090011	0.156432	10110.326172
8511.275802	0.090026	0.156432	10193.149414
8511.276662	0.090051	0.156432	10270.593750
8511.277621	0.089886	0.156432	10356.794922
8511.278552	0.089905	0.156432	10440.496094
8511.279441	0.089949	0.156432	10520.460937
8511.280346	0.090029	0.156432	10601.937500
8512.285634	1.055647	0.141567	446.538635
8512.286598	1.552328	0.141567	1942.982666
8512.287491	1.544546	0.141567	3322.262207
8512.288415	1.504347	0.141567	4712.278809
8512.289292	1.463914	0.141567	5996.130859
8512.290330	1.421444	0.141567	7471.589844
8512.291228	1.384819	0.141567	8715.157227
8512.292151	1.108066	0.141567	9737.902344
8512.293024	0.147048	0.141567	9866.275391
8512.294018	0.089843	0.141567	9955.579102
8512.294941	0.090000	0.141567	10038.649414
8512.295816	0.089934	0.141567	10117.341797
8512.296742	0.089945	0.141567	10200.630859
8512.297699	0.089868	0.141567	10286.634766
8512.298607	0.090011	0.141567	10368.364258
8512.299488	0.089967	0.141567	10447.625000
8512.300423	0.089989	0.141567	10531.764648
8512.301371	0.089938	0.141567	10617.025391
8513.292858	1.157018	0.153793	640.987854
8513.293799	1.561121	0.153793	2110.002441
8513.294728	1.539895	0.153793	3540.564941
8513.295594	1.500531	0.153793	4840.024902
8513.296632	1.455765	0.153793	6351.109375
8513.297517	1.417899	0.153793	7605.950195
8513.298395	1.382563	0.153793	8819.840820
8513.299344	0.955701	0.153793	9726.800781
8513.300312	0.107688	0.153793	9831.042969
8513.301221	0.089938	0.153793	9912.795898
8513.302098	0.090026	0.153793	9991.748047
8513.303119	0.090000	0.153793	10083.637695
8513.304016	0.089923	0.153793	10164.298828
8513.304885	0.090011	0.153793	10242.518555
8513.305749	0.089993	0.153793	10320.272461
8513.306798	0.090004	0.153793	10414.686523
8513.307686	0.089864	0.153793	10494.486328
8513.308552	0.089960	0.153793	10572.391602
8514.312735	1.143677	0.141624	583.275146
8514.313671	1.560359	0.141624	2043.771118
8514.314550	1.543429	0.141624	3400.445068
8514.315500	1.501538	0.141624	4826.906250
8514.316549	1.455322	0.141624	6353.539062
8514.317427	1.417837	0.141624	7598.399902
8514.318299	1.382362	0.141624	8803.819336
8514.319348	0.856183	0.141624	9701.955078
8514.320296	0.099836	0.141624	9796.599609
8514.321165	0.089861	0.141624	9874.688477
8514.322111	0.090095	0.141624	9959.918945
8514.323157	0.090026	0.141624	10054.085937
8514.324045	0.089945	0.141624	10133.957031
8514.324915	0.089956	0.141624	10212.218750
8514.325851	0.089993	0.141624	10296.452148
8514.326849	0.089963	0.141624	10386.235352
8514.327779	0.089963	0.141624	10469.901367
8514.328657	0.089960	0.141624	10548.885742
8515.320267	1.066187	0.147513	465.923523
8515.321136	1.553060	0.147513	1815.532959
8515.322188	1.541799	0.147513	3437.505859
8515.323192	1.497125	0.147513	4940.619629
8515.324089	1.457571	0.147513	6248.060547
8515.325069	1.416936	0.147513	7636.657715
8515.326132	1.374789	0.147513	9098.058594
8515.327052	0.756350	0.147513	9793.900391
8515.327916	0.098730	0.147513	9879.203125
8515.329004	0.089916	0.147513	9977.031250
8515.329996	0.089897	0.147513	10066.209961
8515.330890	0.089934	0.147513	10146.611328
8515.331891	0.090015	0.147513	10236.715820
8515.332943	0.089952	0.147513	10331.345703
8515.333824	0.089919	0.147513	10410.564453
8515.334683	0.089978	0.147513	10487.855469
8515.335745	0.089934	0.147513	10583.365234
8515.336698	0.089967	0.147513	10669.103516
8516.340673	1.058353	0.134804	454.033569
8516.341674	1.553837	0.134804	2009.423950
8516.342721	1.537961	0.134804	3619.669434
8516.343623	1.496689	0.134804	4969.683594
8516.344484	1.457153	0.134804	6224.292480
8516.345585	1.413080	0.134804	7780.093262
8516.346588	1.372852	0.134804	9157.063477
8516.347472	0.741372	0.134804	9812.436523
8516.348480	0.095889	0.134804	9909.092773
8516.349544	0.089883	0.134804	10004.728516
8516.350417	0.089945	0.134804	10083.250977
8516.351278	0.089974	0.134804	10160.718750
8516.352379	0.090022	0.134804	10259.833008
8516.353337	0.089890	0.134804	10345.948242
8516.354204	0.089945	0.134804	10423.930664
8516.355212	0.090117	0.134804	10514.768555
8516.356245	0.089916	0.134804	10607.651367
8516.357138	0.090037	0.134804	10688.053711
8517.347315	1.105389	0.148089	532.797668
8517.348248	1.558564	0.148089	1986.938232
8517.349172	1.543019	0.148089	3412.687500
8517.350053	1.503395	0.148089	4737.178223
8517.351031	1.460834	0.148089	6165.873535
8517.351975	1.421602	0.148089	7507.865234
8517.352877	1.384501	0.148089	8756.684570
8517.353766	1.095077	0.148089	9730.208008
8517.354717	0.133931	0.148089	9857.576172
8517.355675	0.089832	0.148089	9943.634766
8517.356553	0.089967	0.148089	10022.625977
8517.357462	0.089963	0.148089	10104.402344
8517.358406	0.090015	0.148089	10189.375977
8517.359331	0.089952	0.148089	10272.582031
8517.360204	0.089996	0.148089	10351.148437
8517.361152	0.089938	0.148089	10436.409180
8517.362077	0.089938	0.148089	10519.601562
8517.362993	0.089941	0.148089	10601.988281
8518.367730	1.098750	0.131174	516.412476
8518.368652	1.557583	0.131174	1952.504028
8518.369533	1.545776	0.131174	3314.333008
8518.370472	1.505259	0.131174	4727.770996
8518.371412	1.462258	0.131174	6102.293945
8518.372338	1.423418	0.131174	7420.378906
8518.373218	1.387690	0.131174	8641.546875
8518.374159	1.110234	0.131174	9686.277344
8518.375120	0.137684	0.131174	9818.591797
8518.376044	0.089784	0.131174	9901.551758
8518.376909	0.089872	0.131174	9979.291016
8518.377880	0.089901	0.131174	10066.584961
8518.378833	0.089978	0.131174	10152.333984
8518.379724	0.089949	0.131174	10232.478516
8518.380645	0.089993	0.131174	10315.361328
8518.381573	0.090015	0.131174	10398.894531
8518.382491	0.090015	0.131174	10481.528320
8518.383383	0.089985	0.131174	10561.794922
8519.375801	1.050088	0.140496	442.086975
8519.376721	1.553342	0.140496	1871.161865
8519.377688	1.544440	0.140496	3364.635010
8519.378615	1.503475	0.140496	4758.356445
8519.379481	1.464023	0.140496	6026.200684
8519.380448	1.424670	0.140496	7403.856934
8519.381379	1.386497	0.140496	8694.685547
8519.382268	1.157655	0.140496	9723.840820
8519.383144	0.166648	0.140496	9869.824219
8519.384126	0.089758	0.140496	9957.966797
8519.385080	0.089941	0.140496	10043.770508
8519.385974	0.089919	0.140496	10124.158203
8519.386886	0.089894	0.140496	10206.141602
8519.387839	0.089963	0.140496	10291.876953
8519.388761	0.089967	0.140496	10374.826172
8519.389623	0.089963	0.140496	10452.375000
8519.390549	0.089846	0.140496	10535.572266
8519.391497	0.089941	0.140496	10620.836914
8520.394708	1.078817	0.129031	473.600708
8520.395573	1.553474	0.129031	1817.355835
8520.396554	1.545828	0.129031	3333.812744
8520.397486	1.504439	0.129031	4735.949219
8520.398391	1.463734	0.129031	6060.628906
8520.399290	1.425604	0.129031	7342.247070
8520.400221	1.387086	0.129031	8633.624023
8520.401177	1.119521	0.129031	9703.886719
8520.402072	0.150656	0.129031	9838.723633
8520.402989	0.089784	0.129031	9921.055664
8520.403946	0.090040	0.129031	10007.224609
8520.404862	0.089908	0.129031	10089.581055
8520.405730	0.090029	0.129031	10167.726562
8520.406720	0.089978	0.129031	10256.804687
8520.407652	0.089949	0.129031	10340.636719
8520.408577	0.090022	0.129031	10423.907227
8520.409436	0.090044	0.129031	10501.254883
8520.410372	0.089908	0.129031	10585.409180
8521.402413	1.115376	0.138989	602.303040
8521.403314	1.559008	0.138989	2006.968994
8521.404232	1.542719	0.138989	3423.184570
8521.405097	1.503772	0.138989	4723.947266
8521.406037	1.461116	0.138989	6097.395996
8521.406994	1.421276	0.138989	7457.556641
8521.407919	1.384464	0.138989	8738.185547
8521.408782	1.107795	0.138989	9694.212891
8521.409766	0.134546	0.138989	9826.606445
8521.410713	0.089901	0.138989	9911.743164
8521.411600	0.089982	0.138989	9991.556641
8521.412503	0.089886	0.138989	10072.724609
8521.413449	0.089890	0.138989	10157.760742
8521.414370	0.089923	0.138989	10240.580078
8521.415241	0.089982	0.138989	10318.954102
8521.416151	0.089886	0.138989	10400.750977
8521.417107	0.089963	0.138989	10486.755859
8521.418024	0.089905	0.138989	10569.198242
8522.421175	1.049235	0.130288	439.629303
8522.422168	1.555873	0.130288	1984.610962
8522.423083	1.543337	0.130288	3396.764648
8522.423999	1.502585	0.130288	4773.132812
8522.424892	1.462745	0.130288	6079.364258
8522.425860	1.422700	0.130288	7456.538086
8522.426793	1.384416	0.130288	8748.198242
8522.427721	1.084340	0.130288	9754.465820
8522.428590	0.142694	0.130288	9878.466797
8522.429558	0.089905	0.130288	9965.494141
8522.430507	0.089813	0.130288	10050.726562
8522.431403	0.089960	0.130288	10131.330078
8522.432297	0.089919	0.130288	10211.717773
8522.433233	0.089875	0.130288	10295.840820
8522.434153	0.089934	0.130288	10378.580078
8522.435020	0.089974	0.130288	10456.587891
8522.436038	0.089982	0.130288	10548.189453
8522.436957	0.089956	0.130288	10630.859375
8523.430837	1.047579	0.136274	439.983337
8523.431813	1.553112	0.136274	1955.820312
8523.432762	1.542579	0.136274	3419.728027
8523.433687	1.501835	0.136274	4808.925293
8523.434556	1.462485	0.136274	6079.825195
8523.435599	1.419760	0.136274	7560.634277
8523.436489	1.383534	0.136274	8791.979492
8523.437365	1.106627	0.136274	9761.384766
8523.438327	0.146876	0.136274	9902.679687
8523.439298	0.089773	0.136274	9989.849609
8523.440214	0.089744	0.136274	10072.054687
8523.441090	0.089938	0.136274	10150.839844
8523.442100	0.089912	0.136274	10241.651367
8523.443002	0.089890	0.136274	10322.732422
8523.443880	0.089934	0.136274	10401.694336
8523.444741	0.089773	0.136274	10478.989258
8523.445802	0.089978	0.136274	10574.456055
8523.446696	0.089967	0.136274	10654.886719
8524.447169	1.055251	0.128262	450.592377
8524.448092	1.551713	0.128262	1882.823120
8524.449096	1.541605	0.128262	3430.594727
8524.450016	1.500981	0.128262	4811.497559
8524.450905	1.461815	0.128262	6111.051270
8524.451907	1.420389	0.128262	7534.281250
8524.452829	1.382234	0.128262	8808.701172
8524.453761	1.027657	0.128262	9766.477539
8524.454626	0.128273	0.128262	9877.433594
8524.455671	0.089788	0.128262	9971.261719
8524.456559	0.089960	0.128262	10051.145508
8524.457438	0.089956	0.128262	10130.216797
8524.458435	0.089978	0.128262	10219.924805
8524.459370	0.089908	0.128262	10303.989258
8524.460291	0.090000	0.128262	10386.878906
8524.461149	0.089974	0.128262	10464.077148
8524.462164	0.089941	0.128262	10555.367187
8524.463066	0.090000	0.128262	10636.546875
8525.459902	1.051860	0.137930	447.040680
8525.460768	1.552332	0.137930	1791.359741
8525.461776	1.544476	0.137930	3348.191895
8525.462711	1.502758	0.137930	4753.270508
8525.463634	1.461914	0.137930	6102.617187
8525.464503	1.424410	0.137930	7340.429687
8525.465544	1.383589	0.137930	8780.746094
8525.466430	1.093920	0.137930	9749.958984
8525.467309	0.145635	0.137930	9877.971680
8525.468298	0.089974	0.137930	9966.956055
8525.469228	0.090048	0.137930	10050.700195
8525.470133	0.089985	0.137930	10132.136719
8525.471008	0.090051	0.137930	10210.931641
8525.472026	0.089894	0.137930	10302.443359
8525.472923	0.090055	0.137930	10383.222656
8525.473797	0.090004	0.137930	10461.885742
8525.474719	0.089989	0.137930	10544.855469
8525.475714	0.089934	0.137930	10634.339844
8526.473146	1.048473	0.130320	441.407074
8526.474016	1.551361	0.130320	1791.091187
8526.475136	1.540942	0.130320	3516.946777
8526.476024	1.500329	0.130320	4849.239258
8526.476893	1.461357	0.130320	6119.159180
8526.477936	1.417350	0.130320	7597.455078
8526.478927	1.378096	0.130320	8963.148437
8526.479813	0.938024	0.130320	9794.237305
8526.480676	0.114166	0.130320	9892.762695
8526.481787	0.089846	0.130320	9992.582031
8526.482688	0.089974	0.130320	10073.649414
8526.483554	0.089949	0.130320	10151.544922
8526.484620	0.089952	0.130320	10247.434570
8526.485580	0.089912	0.130320	10333.750000
8526.486462	0.089945	0.130320	10413.082031
8526.487323	0.089938	0.130320	10490.518555
8526.488431	0.089886	0.130320	10590.112305
8526.489323	0.090018	0.130320	10670.408203
8527.488016	1.132998	0.137132	567.632019
8527.488946	1.559993	0.137132	2018.425293
8527.489821	1.543682	0.137132	3369.146729
8527.490853	1.497887	0.137132	4914.965820
8527.491885	1.452473	0.137132	6413.917969
8527.492780	1.415185	0.137132	7680.508789
8527.493736	1.377447	0.137132	8997.348633
8527.494804	0.663640	0.137132	9706.116211
8527.495743	0.092966	0.137132	9793.411133
8527.496605	0.089883	0.137132	9870.889648
8527.497672	0.089974	0.137132	9966.892578
8527.498669	0.089908	0.137132	10056.531250
8527.499563	0.090114	0.137132	10137.092773
8527.500532	0.090004	0.137132	10224.306641
8527.501578	0.090022	0.137132	10318.469727
8527.502485	0.089963	0.137132	10400.066406
8527.503350	0.089949	0.137132	10477.872070
8527.504426	0.089952	0.137132	10574.661133
8528.497679	1.128768	0.140681	571.156799
8528.498675	1.561560	0.140681	2126.470703
8528.499576	1.540272	0.140681	3514.255859
8528.500573	1.495609	0.140681	5005.377930
8528.501634	1.450001	0.140681	6543.829102
8528.502530	1.411956	0.140681	7808.941406
8528.503406	1.375616	0.140681	9013.981445
8528.504498	0.630546	0.140681	9702.537109
8528.505447	0.092190	0.140681	9790.025391
8528.506309	0.089883	0.140681	9867.503906
8528.507337	0.089996	0.140681	9960.020508
8528.508365	0.089938	0.140681	10052.476562
8528.509245	0.089974	0.140681	10131.654297
8528.510150	0.089923	0.140681	10213.035156
8528.511232	0.089996	0.140681	10310.411133
8528.512171	0.089945	0.140681	10394.869141
8528.513031	0.090022	0.140681	10472.288086
8528.514055	0.089982	0.140681	10564.429687
8529.516515	1.073946	0.140427	497.237213
8529.517413	1.556195	0.140427	1894.700317
8529.518337	1.545333	0.140427	3322.588379
8529.519209	1.506965	0.140427	4636.662109
8529.520252	1.460574	0.140427	6160.040527
8529.521304	1.416390	0.140427	7650.083008
8529.522230	1.379297	0.140427	8927.311523
8529.523099	0.960546	0.140427	9762.025391
8529.524182	0.101730	0.140427	9872.198242
8529.525180	0.089828	0.140427	9961.846680
8529.526057	0.089938	0.140427	10040.721680
8529.527024	0.089982	0.140427	10127.734375
8529.528093	0.090055	0.140427	10224.002930
8529.528980	0.090015	0.140427	10303.845703
8529.529849	0.089974	0.140427	10382.033203
8529.530945	0.089927	0.140427	10480.592773
8529.531933	0.089897	0.140427	10569.411133
8529.532825	0.089901	0.140427	10649.602539
8530.523623	1.109806	0.140230	520.498901
8530.524511	1.556660	0.140230	1902.813110
8530.525379	1.546575	0.140230	3245.239990
8530.526363	1.504442	0.140230	4725.610840
8530.527315	1.462097	0.140230	6117.527344
8530.528213	1.424333	0.140230	7396.578613
8530.529136	1.387310	0.140230	8677.065430
8530.530105	1.101083	0.140230	9744.014648
8530.531034	0.134993	0.140230	9869.422852
8530.531905	0.089879	0.140230	9947.708008
8530.532819	0.089971	0.140230	10029.941406
8530.533780	0.090004	0.140230	10116.434570
8530.534702	0.089949	0.140230	10199.367187
8530.535576	0.089952	0.140230	10277.985352
8530.536549	0.089938	0.140230	10365.495117
8530.537493	0.089982	0.140230	10450.437500
8530.538394	0.089993	0.140230	10531.520508
8530.539273	0.089850	0.140230	10610.498047
8531.545589	1.123385	0.137156	542.594910
8531.546550	1.559290	0.137156	2041.072266
8531.547481	1.541689	0.137156	3476.385254
8531.548347	1.502373	0.137156	4777.440430
8531.549323	1.459926	0.137156	6202.327637
8531.550278	1.420283	0.137156	7558.698242
8531.551168	1.383878	0.137156	8790.349609
8531.552057	1.078356	0.137156	9749.007812
8531.553009	0.130400	0.137156	9873.149414
8531.553938	0.089875	0.137156	9956.643555
8531.554830	0.089978	0.137156	10036.904297
8531.555746	0.089890	0.137156	10119.244141
8531.556703	0.090007	0.137156	10205.380859
8531.557627	0.090026	0.137156	10288.564453
8531.558502	0.090051	0.137156	10367.359375
8531.559455	0.089938	0.137156	10453.070312
8531.560387	0.089879	0.137156	10536.837891
8531.561314	0.089949	0.137156	10620.220703
8532.548026	1.056844	0.146627	444.931519
8532.549004	1.555800	0.146627	1966.503540
8532.549933	1.543769	0.146627	3400.665527
8532.550805	1.504530	0.146627	4712.615723
8532.551722	1.464280	0.146627	6055.360352
8532.552655	1.423971	0.146627	7383.925293
8532.553599	1.385819	0.146627	8692.138672
8532.554499	1.163646	0.146627	9739.419922
8532.555424	0.153021	0.146627	9880.964844
8532.556382	0.089813	0.146627	9967.005859
8532.557305	0.089916	0.146627	10049.998047
8532.558167	0.089912	0.146627	10127.501953
8532.559135	0.089846	0.146627	10214.472656
8532.560068	0.089857	0.146627	10298.309570
8532.560924	0.089941	0.146627	10375.299805
8532.561831	0.090062	0.146627	10456.986328
8532.562778	0.089916	0.146627	10542.136719
8532.563731	0.089963	0.146627	10627.872070
8533.573557	1.048323	0.136979	441.343842
8533.574525	1.552866	0.136979	1944.518311
8533.575445	1.544165	0.136979	3365.150146
8533.576377	1.503149	0.136979	4766.085449
8533.577245	1.463811	0.136979	6036.673340
8533.578217	1.422744	0.136979	7419.580566
8533.579156	1.385215	0.136979	8720.296875
8533.580077	1.113223	0.136979	9745.575195
8533.580942	0.150905	0.136979	9876.107422
8533.581893	0.089872	0.136979	9961.575195
8533.582851	0.089912	0.136979	10047.710937
8533.583742	0.090018	0.136979	10127.916992
8533.584651	0.089916	0.136979	10209.650391
8533.585613	0.089894	0.136979	10296.127930
8533.586520	0.089934	0.136979	10377.698242
8533.587410	0.089982	0.136979	10457.782227
8533.588344	0.090011	0.136979	10541.852539
8533.589292	0.089901	0.136979	10627.079102
8534.574165	1.184209	0.145914	688.025452
8534.575087	1.561113	0.145914	2127.371826
8534.576016	1.539558	0.145914	3557.621094
8534.576880	1.499128	0.145914	4852.868164
8534.577935	1.454403	0.145914	6387.263672
8534.578813	1.416786	0.145914	7631.201660
8534.579722	1.380465	0.145914	8886.044922
8534.580610	0.993688	0.145914	9768.439453
8534.581600	0.108772	0.145914	9876.124023
8534.582527	0.089956	0.145914	9959.513672
8534.583401	0.089974	0.145914	10038.151367
8534.584430	0.089967	0.145914	10130.727539
8534.585324	0.089945	0.145914	10211.138672
8534.586238	0.089883	0.145914	10293.291992
8534.587102	0.089938	0.145914	10370.998047
8534.588078	0.090000	0.145914	10458.837891
8534.588996	0.089982	0.145914	10541.441406
8534.589901	0.090000	0.145914	10622.891602
8535.602619	1.055881	0.130598	448.749573
8535.603613	1.554547	0.130598	1993.969482
8535.604610	1.539430	0.130598	3528.781250
8535.605503	1.499652	0.130598	4867.970703
8535.606368	1.459585	0.130598	6130.511719
8535.607484	1.415211	0.130598	7709.887695
8535.608397	1.377609	0.130598	8967.644531
8535.609331	0.875028	0.130598	9784.920898
8535.610194	0.107468	0.130598	9877.666016
8535.611234	0.089901	0.130598	9971.163086
8535.612117	0.089919	0.130598	10050.561523
8535.612985	0.089949	0.130598	10128.636719
8535.613965	0.089982	0.130598	10216.818359
8535.614901	0.089949	0.130598	10301.010742
8535.615814	0.090018	0.130598	10383.197266
8535.616693	0.089916	0.130598	10462.233398
8535.617727	0.089908	0.130598	10555.199219
8535.618619	0.089923	0.130598	10635.410156
